%OpenBCI Raw EEG Data
%
%Sample Rate = 250.0 Hz
%First Column = SampleIndex
%Other Columns = EEG data in microvolts followed by Accel Data (in G) interleaved with Aux Data
0, 61662,27, 44778,99, 0,00, 0,00, 0,00, 0,00, 0,00, 0,00, 0,00, 0,00, 0,00
1, 44082,67, 43261,42, 0,00, 0,00, 0,00, 0,00, 0,00, 0,00, 0,00, 0,00, 0,00
2, 29617,04, 42622,18, 0,00, 0,00, 0,00, 0,00, 0,00, 0,00, 0,00, 0,00, 0,00
3, 38379,04, 43707,83, 0,00, 0,00, 0,00, 0,00, 0,00, 0,00, 0,00, 0,00, 0,00
4, 56708,07, 44968,42, 0,00, 0,00, 0,00, 0,00, 0,00, 0,00, 0,00, 0,00, 0,00
5, 61814,86, 44820,45, 0,00, 0,00, 0,00, 0,00, 0,00, 0,00, 0,00, 0,00, 0,00
6, 44329,57, 43304,07, 0,00, 0,00, 0,00, 0,00, 0,00, 0,00, 0,01, 0,01, 0,00
7, 29681,15, 42637,74, 0,00, 0,00, 0,00, 0,00, 0,00, 0,00, 0,00, 0,00, 0,00
8, 38230,04, 43714,63, 0,00, 0,00, 0,00, 0,00, 0,00, 0,00, 0,00, 0,00, 0,00
9, 56505,57, 44969,99, 0,00, 0,00, 0,00, 0,00, 0,00, 0,00, 0,00, 0,00, 0,00
10, 61902,82, 44826,38, 0,00, 0,00, 0,00, 0,00, 0,00, 0,00, 0,00, 0,00, 0,00
11, 44508,34, 43309,95, 0,00, 0,00, 0,00, 0,00, 0,00, 0,00, 0,00, 0,00, 0,00
12, 29763,72, 42649,34, 0,00, 0,00, 0,00, 0,00, 0,00, 0,00, 0,00, 0,00, 0,00
13, 38057,51, 43711,65, 0,00, 0,00, 0,00, 0,00, 0,00, 0,00, 0,00, 0,00, 0,00
14, 56332,79, 44968,20, 0,00, 0,00, 0,00, 0,00, 0,00, 0,00, 0,00, 0,00, 0,00
15, 62050,79, 44852,82, 0,00, 0,00, 0,00, 0,00, 0,00, 0,00, 0,00, 0,00, 0,00
16, 44742,45, 43329,64, 0,00, 0,00, 0,00, 0,00, 0,00, 0,00, 0,01, 0,01, 0,00
17, 29823,55, 42636,11, 0,00, 0,00, 0,00, 0,00, 0,00, 0,00, 0,00, 0,00, 0,00
18, 37859,68, 43686,17, 0,00, 0,00, 0,00, 0,00, 0,00, 0,00, 0,00, 0,00, 0,00
19, 56119,68, 44946,63, 0,00, 0,00, 0,00, 0,00, 0,00, 0,00, 0,00, 0,00, 0,00
20, 62136,02, 44855,99, 0,00, 0,00, 0,00, 0,00, 0,00, 0,00, 0,00, 0,00, 0,00
21, 44919,76, 43338,20, 0,00, 0,00, 0,00, 0,00, 0,00, 0,00, 0,00, 0,00, 0,00
22, 29852,36, 42625,85, 0,00, 0,00, 0,00, 0,00, 0,00, 0,00, 0,00, 0,00, 0,00
23, 37685,69, 43669,45, 0,00, 0,00, 0,00, 0,00, 0,00, 0,00, 0,00, 0,00, 0,00
24, 55927,26, 44931,48, 0,00, 0,00, 0,00, 0,00, 0,00, 0,00, 0,00, 0,00, 0,00
25, 62247,01, 44867,71, 0,00, 0,00, 0,00, 0,00, 0,00, 0,00, 0,00, 0,00, 0,00
26, 45124,57, 43351,12, 0,00, 0,00, 0,00, 0,00, 0,00, 0,00, 0,01, 0,00, 0,00
27, 29946,33, 42634,86, 0,00, 0,00, 0,00, 0,00, 0,00, 0,00, 0,00, 0,00, 0,00
28, 37514,25, 43657,47, 0,00, 0,00, 0,00, 0,00, 0,00, 0,00, 0,00, 0,00, 0,00
29, 55720,57, 44911,43, 0,00, 0,00, 0,00, 0,00, 0,00, 0,00, 0,00, 0,00, 0,00
30, 62349,88, 44875,35, 0,00, 0,00, 0,00, 0,00, 0,00, 0,00, 0,00, 0,00, 0,00
31, 45316,24, 43360,97, 0,00, 0,00, 0,00, 0,00, 0,00, 0,00, 0,00, 0,00, 0,00
32, 30002,92, 42629,29, 0,00, 0,00, 0,00, 0,00, 0,00, 0,00, 0,00, 0,00, 0,00
33, 37326,09, 43644,64, 0,00, 0,00, 0,00, 0,00, 0,00, 0,00, 0,00, 0,00, 0,00
34, 55521,66, 44911,70, 0,00, 0,00, 0,00, 0,00, 0,00, 0,00, 0,00, 0,00, 0,00
35, 62434,07, 44896,36, 0,00, 0,00, 0,00, 0,00, 0,00, 0,00, 0,00, 0,00, 0,00
36, 45525,88, 43386,21, 0,00, 0,00, 0,00, 0,00, 0,00, 0,00, 0,01, 0,01, -0,00
37, 30088,06, 42635,39, 0,00, 0,00, 0,00, 0,00, 0,00, 0,00, 0,00, 0,00, 0,00
38, 37155,50, 43626,82, 0,00, 0,00, 0,00, 0,00, 0,00, 0,00, 0,00, 0,00, 0,00
39, 55326,15, 44899,13, 0,00, 0,00, 0,00, 0,00, 0,00, 0,00, 0,00, 0,00, 0,00
40, 62550,57, 44924,41, 0,00, 0,00, 0,00, 0,00, 0,00, 0,00, 0,00, 0,00, 0,00
41, 45732,52, 43404,80, 0,00, 0,00, 0,00, 0,00, 0,00, 0,00, 0,00, 0,00, 0,00
42, 30145,55, 42634,07, 0,00, 0,00, 0,00, 0,00, 0,00, 0,00, 0,00, 0,00, 0,00
43, 36971,68, 43624,30, 0,00, 0,00, 0,00, 0,00, 0,00, 0,00, 0,00, 0,00, 0,00
44, 55125,59, 44894,13, 0,00, 0,00, 0,00, 0,00, 0,00, 0,00, 0,00, 0,00, 0,00
45, 62644,02, 44928,14, 0,00, 0,00, 0,00, 0,00, 0,00, 0,00, 0,00, 0,00, 0,00
46, 45916,70, 43406,13, 0,00, 0,00, 0,00, 0,00, 0,00, 0,00, 0,00, 0,00, 0,00
47, 30225,62, 42627,12, 0,00, 0,00, 0,00, 0,00, 0,00, 0,00, 0,00, 0,00, 0,00
48, 36791,33, 43602,39, 0,00, 0,00, 0,00, 0,00, 0,00, 0,00, 0,00, 0,00, 0,00
49, 54910,03, 44876,22, 0,00, 0,00, 0,00, 0,00, 0,00, 0,00, 0,00, 0,00, 0,00
50, 62715,08, 44941,00, 0,00, 0,00, 0,00, 0,00, 0,00, 0,00, 0,00, 0,00, 0,00
51, 46116,07, 43414,15, 0,00, 0,00, 0,00, 0,00, 0,00, 0,00, 0,00, 0,00, 0,00
52, 30306,35, 42616,57, 0,00, 0,00, 0,00, 0,00, 0,00, 0,00, 0,00, 0,00, 0,00
53, 36588,84, 43579,75, 0,00, 0,00, 0,00, 0,00, 0,00, 0,00, 0,00, 0,00, 0,00
54, 54705,29, 44857,31, 0,00, 0,00, 0,00, 0,00, 0,00, 0,00, 0,00, 0,00, 0,00
55, 62820,27, 44940,33, 0,00, 0,00, 0,00, 0,00, 0,00, 0,00, 0,00, 0,00, 0,00
56, 46313,08, 43412,03, 0,00, 0,00, 0,00, 0,00, 0,00, 0,00, 0,01, -0,00, 0,00
57, 30387,04, 42617,04, 0,00, 0,00, 0,00, 0,00, 0,00, 0,00, 0,00, 0,00, 0,00
58, 36460,50, 43569,41, 0,00, 0,00, 0,00, 0,00, 0,00, 0,00, 0,00, 0,00, 0,00
59, 54511,79, 44838,34, 0,00, 0,00, 0,00, 0,00, 0,00, 0,00, 0,00, 0,00, 0,00
60, 62902,43, 44964,18, 0,00, 0,00, 0,00, 0,00, 0,00, 0,00, 0,00, 0,00, 0,00
61, 46540,80, 43441,87, 0,00, 0,00, 0,00, 0,00, 0,00, 0,00, 0,00, 0,00, 0,00
62, 30486,17, 42619,61, 0,00, 0,00, 0,00, 0,00, 0,00, 0,00, 0,00, 0,00, 0,00
63, 36261,48, 43551,61, 0,00, 0,00, 0,00, 0,00, 0,00, 0,00, 0,00, 0,00, 0,00
64, 54310,56, 44836,28, 0,00, 0,00, 0,00, 0,00, 0,00, 0,00, 0,00, 0,00, 0,00
65, 62996,56, 44975,15, 0,00, 0,00, 0,00, 0,00, 0,00, 0,00, 0,00, 0,00, 0,00
66, 46729,94, 43450,92, 0,00, 0,00, 0,00, 0,00, 0,00, 0,00, 0,01, 0,00, 0,00
67, 30555,88, 42619,50, 0,00, 0,00, 0,00, 0,00, 0,00, 0,00, 0,00, 0,00, 0,00
68, 36066,55, 43529,28, 0,00, 0,00, 0,00, 0,00, 0,00, 0,00, 0,00, 0,00, 0,00
69, 54081,43, 44808,05, 0,00, 0,00, 0,00, 0,00, 0,00, 0,00, 0,00, 0,00, 0,00
70, 63052,73, 44982,01, 0,00, 0,00, 0,00, 0,00, 0,00, 0,00, 0,00, 0,00, 0,00
71, 46946,39, 43474,61, 0,00, 0,00, 0,00, 0,00, 0,00, 0,00, 0,00, 0,00, 0,00
72, 30659,08, 42618,47, 0,00, 0,00, 0,00, 0,00, 0,00, 0,00, 0,00, 0,00, 0,00
73, 35908,55, 43525,95, 0,00, 0,00, 0,00, 0,00, 0,00, 0,00, 0,00, 0,00, 0,00
74, 53878,79, 44810,84, 0,00, 0,00, 0,00, 0,00, 0,00, 0,00, 0,00, 0,00, 0,00
75, 63133,93, 45005,62, 0,00, 0,00, 0,00, 0,00, 0,00, 0,00, 0,00, 0,00, 0,00
76, 47163,45, 43492,65, 0,00, 0,00, 0,00, 0,00, 0,00, 0,00, 0,00, 0,00, 0,00
77, 30776,79, 42629,67, 0,00, 0,00, 0,00, 0,00, 0,00, 0,00, 0,00, 0,00, 0,00
78, 35741,73, 43508,99, 0,00, 0,00, 0,00, 0,00, 0,00, 0,00, 0,00, 0,00, 0,00
79, 53687,59, 44796,80, 0,00, 0,00, 0,00, 0,00, 0,00, 0,00, 0,00, 0,00, 0,00
80, 63213,14, 45019,07, 0,00, 0,00, 0,00, 0,00, 0,00, 0,00, 0,00, 0,00, 0,00
81, 47358,23, 43503,15, 0,00, 0,00, 0,00, 0,00, 0,00, 0,00, 0,00, 0,00, 0,00
82, 30854,48, 42615,01, 0,00, 0,00, 0,00, 0,00, 0,00, 0,00, 0,00, 0,00, 0,00
83, 35551,30, 43486,66, 0,00, 0,00, 0,00, 0,00, 0,00, 0,00, 0,00, 0,00, 0,00
84, 53488,57, 44788,96, 0,00, 0,00, 0,00, 0,00, 0,00, 0,00, 0,00, 0,00, 0,00
85, 63303,07, 45036,33, 0,00, 0,00, 0,00, 0,00, 0,00, 0,00, 0,00, 0,00, 0,00
86, 47583,15, 43520,92, 0,00, 0,00, 0,00, 0,00, 0,00, 0,00, 0,00, 0,00, 0,00
87, 30960,67, 42618,23, 0,00, 0,00, 0,00, 0,00, 0,00, 0,00, 0,00, 0,00, 0,00
88, 35381,71, 43472,55, 0,00, 0,00, 0,00, 0,00, 0,00, 0,00, 0,00, 0,00, 0,00
89, 53271,18, 44768,66, 0,00, 0,00, 0,00, 0,00, 0,00, 0,00, 0,00, 0,00, 0,00
90, 63359,79, 45040,51, 0,00, 0,00, 0,00, 0,00, 0,00, 0,00, 0,00, 0,00, 0,00
91, 47780,52, 43535,54, 0,00, 0,00, 0,00, 0,00, 0,00, 0,00, 0,00, 0,00, 0,00
92, 31071,36, 42631,23, 0,00, 0,00, 0,00, 0,00, 0,00, 0,00, 0,00, 0,00, 0,00
93, 35219,75, 43472,73, 0,00, 0,00, 0,00, 0,00, 0,00, 0,00, 0,00, 0,00, 0,00
94, 53066,48, 44763,41, 0,00, 0,00, 0,00, 0,00, 0,00, 0,00, 0,00, 0,00, 0,00
95, 63430,07, 45062,66, 0,00, 0,00, 0,00, 0,00, 0,00, 0,00, 0,00, 0,00, 0,00
96, 48002,29, 43556,89, 0,00, 0,00, 0,00, 0,00, 0,00, 0,00, 0,01, -0,00, 0,01
97, 31170,42, 42620,42, 0,00, 0,00, 0,00, 0,00, 0,00, 0,00, 0,00, 0,00, 0,00
98, 35048,25, 43445,82, 0,00, 0,00, 0,00, 0,00, 0,00, 0,00, 0,00, 0,00, 0,00
99, 52846,18, 44735,99, 0,00, 0,00, 0,00, 0,00, 0,00, 0,00, 0,00, 0,00, 0,00
100, 63483,47, 45055,59, 0,00, 0,00, 0,00, 0,00, 0,00, 0,00, 0,00, 0,00, 0,00
101, 48201,58, 43558,90, 0,00, 0,00, 0,00, 0,00, 0,00, 0,00, 0,00, 0,00, 0,00
102, 31281,20, 42605,57, 0,00, 0,00, 0,00, 0,00, 0,00, 0,00, 0,00, 0,00, 0,00
103, 34861,01, 43403,64, 0,00, 0,00, 0,00, 0,00, 0,00, 0,00, 0,00, 0,00, 0,00
104, 52631,58, 44712,68, 0,00, 0,00, 0,00, 0,00, 0,00, 0,00, 0,00, 0,00, 0,00
105, 63534,41, 45064,63, 0,00, 0,00, 0,00, 0,00, 0,00, 0,00, 0,01, 0,00, 0,00
106, 48420,49, 43577,23, 0,00, 0,00, 0,00, 0,00, 0,00, 0,00, 0,00, 0,00, 0,00
107, 31411,82, 42627,75, 0,00, 0,00, 0,00, 0,00, 0,00, 0,00, 0,00, 0,00, 0,00
108, 34694,46, 43409,50, 0,00, 0,00, 0,00, 0,00, 0,00, 0,00, 0,00, 0,00, 0,00
109, 52407,44, 44706,80, 0,00, 0,00, 0,00, 0,00, 0,00, 0,00, 0,00, 0,00, 0,00
110, 63584,21, 45082,04, 0,00, 0,00, 0,00, 0,00, 0,00, 0,00, 0,00, 0,00, 0,00
111, 48646,07, 43595,60, 0,00, 0,00, 0,00, 0,00, 0,00, 0,00, 0,00, 0,00, 0,00
112, 31530,58, 42621,33, 0,00, 0,00, 0,00, 0,00, 0,00, 0,00, 0,00, 0,00, 0,00
113, 34529,80, 43403,51, 0,00, 0,00, 0,00, 0,00, 0,00, 0,00, 0,00, 0,00, 0,00
114, 52211,62, 44709,05, 0,00, 0,00, 0,00, 0,00, 0,00, 0,00, 0,00, 0,00, 0,00
115, 63619,25, 45090,71, 0,00, 0,00, 0,00, 0,00, 0,00, 0,00, 0,00, 0,00, 0,00
116, 48860,24, 43616,16, 0,00, 0,00, 0,00, 0,00, 0,00, 0,00, 0,00, 0,00, 0,00
117, 31667,55, 42637,65, 0,00, 0,00, 0,00, 0,00, 0,00, 0,00, 0,00, 0,00, 0,00
118, 34361,38, 43391,69, 0,00, 0,00, 0,00, 0,00, 0,00, 0,00, 0,00, 0,00, 0,00
119, 51995,70, 44695,08, 0,00, 0,00, 0,00, 0,00, 0,00, 0,00, 0,00, 0,00, 0,00
120, 63671,27, 45104,95, 0,00, 0,00, 0,00, 0,00, 0,00, 0,00, 0,00, 0,00, 0,00
121, 49062,23, 43619,38, 0,00, 0,00, 0,00, 0,00, 0,00, 0,00, 0,00, 0,00, 0,00
122, 31767,26, 42620,59, 0,00, 0,00, 0,00, 0,00, 0,00, 0,00, 0,00, 0,00, 0,00
123, 34190,97, 43359,45, 0,00, 0,00, 0,00, 0,00, 0,00, 0,00, 0,00, 0,00, 0,00
124, 51782,02, 44666,83, 0,00, 0,00, 0,00, 0,00, 0,00, 0,00, 0,00, 0,00, 0,00
125, 63681,55, 45102,42, 0,00, 0,00, 0,00, 0,00, 0,00, 0,00, 0,01, -0,00, 0,00
126, 49245,61, 43635,61, 0,00, 0,00, 0,00, 0,00, 0,00, 0,00, 0,00, 0,00, 0,00
127, 31897,03, 42631,93, 0,00, 0,00, 0,00, 0,00, 0,00, 0,00, 0,00, 0,00, 0,00
128, 34031,71, 43352,70, 0,00, 0,00, 0,00, 0,00, 0,00, 0,00, 0,00, 0,00, 0,00
129, 51576,78, 44665,89, 0,00, 0,00, 0,00, 0,00, 0,00, 0,00, 0,00, 0,00, 0,00
130, 63723,79, 45129,07, 0,00, 0,00, 0,00, 0,00, 0,00, 0,00, 0,00, 0,00, 0,00
131, 49468,97, 43662,12, 0,00, 0,00, 0,00, 0,00, 0,00, 0,00, 0,00, 0,00, 0,00
132, 32054,41, 42644,29, 0,00, 0,00, 0,00, 0,00, 0,00, 0,00, 0,00, 0,00, 0,00
133, 33887,50, 43340,63, 0,00, 0,00, 0,00, 0,00, 0,00, 0,00, 0,00, 0,00, 0,00
134, 51363,26, 44640,37, 0,00, 0,00, 0,00, 0,00, 0,00, 0,00, 0,00, 0,00, 0,00
135, 63746,52, 45131,48, 0,00, 0,00, 0,00, 0,00, 0,00, 0,00, 0,01, 0,01, 0,00
136, 49654,31, 43676,58, 0,00, 0,00, 0,00, 0,00, 0,00, 0,00, 0,00, 0,00, 0,00
137, 32146,93, 42637,14, 0,00, 0,00, 0,00, 0,00, 0,00, 0,00, 0,00, 0,00, 0,00
138, 33726,21, 43321,01, 0,00, 0,00, 0,00, 0,00, 0,00, 0,00, 0,00, 0,00, 0,00
139, 51148,61, 44621,52, 0,00, 0,00, 0,00, 0,00, 0,00, 0,00, 0,00, 0,00, 0,00
140, 63733,83, 45128,19, 0,00, 0,00, 0,00, 0,00, 0,00, 0,00, 0,00, 0,00, 0,00
141, 49858,98, 43686,13, 0,00, 0,00, 0,00, 0,00, 0,00, 0,00, 0,00, 0,00, 0,00
142, 32283,90, 42643,48, 0,00, 0,00, 0,00, 0,00, 0,00, 0,00, 0,00, 0,00, 0,00
143, 33555,85, 43306,41, 0,00, 0,00, 0,00, 0,00, 0,00, 0,00, 0,00, 0,00, 0,00
144, 50933,79, 44609,21, 0,00, 0,00, 0,00, 0,00, 0,00, 0,00, 0,00, 0,00, 0,00
145, 63752,89, 45139,19, 0,00, 0,00, 0,00, 0,00, 0,00, 0,00, 0,01, 0,01, 0,00
146, 50087,06, 43701,19, 0,00, 0,00, 0,00, 0,00, 0,00, 0,00, 0,00, 0,00, 0,00
147, 32411,44, 42638,52, 0,00, 0,00, 0,00, 0,00, 0,00, 0,00, 0,00, 0,00, 0,00
148, 33394,49, 43276,84, 0,00, 0,00, 0,00, 0,00, 0,00, 0,00, 0,00, 0,00, 0,00
149, 50714,12, 44587,64, 0,00, 0,00, 0,00, 0,00, 0,00, 0,00, 0,00, 0,00, 0,00
150, 63755,46, 45141,22, 0,00, 0,00, 0,00, 0,00, 0,00, 0,00, 0,00, 0,00, 0,00
151, 50267,75, 43709,24, 0,00, 0,00, 0,00, 0,00, 0,00, 0,00, 0,00, 0,00, 0,00
152, 32553,71, 42650,97, 0,00, 0,00, 0,00, 0,00, 0,00, 0,00, 0,00, 0,00, 0,00
153, 33265,18, 43295,84, 0,00, 0,00, 0,00, 0,00, 0,00, 0,00, 0,00, 0,00, 0,00
154, 50525,02, 44597,27, 0,00, 0,00, 0,00, 0,00, 0,00, 0,00, 0,00, 0,00, 0,00
155, 63767,36, 45161,56, 0,00, 0,00, 0,00, 0,00, 0,00, 0,00, 0,01, 0,01, 0,00
156, 50490,80, 43734,25, 0,00, 0,00, 0,00, 0,00, 0,00, 0,00, 0,00, 0,00, 0,00
157, 32702,34, 42655,57, 0,00, 0,00, 0,00, 0,00, 0,00, 0,00, 0,00, 0,00, 0,00
158, 33094,50, 43263,92, 0,00, 0,00, 0,00, 0,00, 0,00, 0,00, 0,00, 0,00, 0,00
159, 50292,63, 44567,14, 0,00, 0,00, 0,00, 0,00, 0,00, 0,00, 0,00, 0,00, 0,00
160, 63757,93, 45152,36, 0,00, 0,00, 0,00, 0,00, 0,00, 0,00, 0,00, 0,00, 0,00
161, 50691,83, 43737,07, 0,00, 0,00, 0,00, 0,00, 0,00, 0,00, 0,00, 0,00, 0,00
162, 32859,59, 42653,41, 0,00, 0,00, 0,00, 0,00, 0,00, 0,00, 0,00, 0,00, 0,00
163, 32940,41, 43240,92, 0,00, 0,00, 0,00, 0,00, 0,00, 0,00, 0,00, 0,00, 0,00
164, 50086,21, 44553,26, 0,00, 0,00, 0,00, 0,00, 0,00, 0,00, 0,00, 0,00, 0,00
165, 63770,04, 45162,50, 0,00, 0,00, 0,00, 0,00, 0,00, 0,00, 0,01, 0,01, 0,00
166, 50912,22, 43754,01, 0,00, 0,00, 0,00, 0,00, 0,00, 0,00, 0,00, 0,00, 0,00
167, 32994,48, 42647,53, 0,00, 0,00, 0,00, 0,00, 0,00, 0,00, 0,00, 0,00, 0,00
168, 32771,32, 43208,78, 0,00, 0,00, 0,00, 0,00, 0,00, 0,00, 0,00, 0,00, 0,00
169, 49853,64, 44522,48, 0,00, 0,00, 0,00, 0,00, 0,00, 0,00, 0,00, 0,00, 0,00
170, 63744,85, 45166,41, 0,00, 0,00, 0,00, 0,00, 0,00, 0,00, 0,00, 0,00, 0,00
171, 51113,81, 43774,17, 0,00, 0,00, 0,00, 0,00, 0,00, 0,00, 0,00, 0,00, 0,00
172, 33174,97, 42666,62, 0,00, 0,00, 0,00, 0,00, 0,00, 0,00, 0,00, 0,00, 0,00
173, 32630,10, 43202,43, 0,00, 0,00, 0,00, 0,00, 0,00, 0,00, 0,00, 0,00, 0,00
174, 49612,29, 44508,27, 0,00, 0,00, 0,00, 0,00, 0,00, 0,00, 0,00, 0,00, 0,00
175, 63755,31, 45172,58, 0,00, 0,00, 0,00, 0,00, 0,00, 0,00, 0,01, 0,00, -0,00
176, 51345,46, 43791,34, 0,00, 0,00, 0,00, 0,00, 0,00, 0,00, 0,00, 0,00, 0,00
177, 33325,13, 42668,65, 0,00, 0,00, 0,00, 0,00, 0,00, 0,00, 0,00, 0,00, 0,00
178, 32495,59, 43194,97, 0,00, 0,00, 0,00, 0,00, 0,00, 0,00, 0,00, 0,00, 0,00
179, 49434,88, 44506,14, 0,00, 0,00, 0,00, 0,00, 0,00, 0,00, 0,00, 0,00, 0,00
180, 63744,11, 45188,52, 0,00, 0,00, 0,00, 0,00, 0,00, 0,00, 0,00, 0,00, 0,00
181, 51602,46, 43815,86, 0,00, 0,00, 0,00, 0,00, 0,00, 0,00, 0,00, 0,00, 0,00
182, 33495,88, 42676,27, 0,00, 0,00, 0,00, 0,00, 0,00, 0,00, 0,00, 0,00, 0,00
183, 32336,78, 43188,48, 0,00, 0,00, 0,00, 0,00, 0,00, 0,00, 0,00, 0,00, 0,00
184, 49228,22, 44510,93, 0,00, 0,00, 0,00, 0,00, 0,00, 0,00, 0,00, 0,00, 0,00
185, 63720,98, 45196,03, 0,00, 0,00, 0,00, 0,00, 0,00, 0,00, 0,01, 0,00, 0,00
186, 51789,48, 43829,58, 0,00, 0,00, 0,00, 0,00, 0,00, 0,00, 0,00, 0,00, 0,00
187, 33636,76, 42676,43, 0,00, 0,00, 0,00, 0,00, 0,00, 0,00, 0,00, 0,00, 0,00
188, 32184,34, 43154,54, 0,00, 0,00, 0,00, 0,00, 0,00, 0,00, 0,00, 0,00, 0,00
189, 49001,41, 44475,03, 0,00, 0,00, 0,00, 0,00, 0,00, 0,00, 0,00, 0,00, 0,00
190, 63688,84, 45207,12, 0,00, 0,00, 0,00, 0,00, 0,00, 0,00, 0,00, 0,00, 0,00
191, 52022,48, 43859,06, 0,00, 0,00, 0,00, 0,00, 0,00, 0,00, 0,00, 0,00, 0,00
192, 33826,77, 42689,68, 0,00, 0,00, 0,00, 0,00, 0,00, 0,00, 0,00, 0,00, 0,00
193, 32053,88, 43148,61, 0,00, 0,00, 0,00, 0,00, 0,00, 0,00, 0,00, 0,00, 0,00
194, 48792,09, 44469,18, 0,00, 0,00, 0,00, 0,00, 0,00, 0,00, 0,01, 0,00, -0,00
195, 63677,50, 45210,47, 0,00, 0,00, 0,00, 0,00, 0,00, 0,00, 0,00, 0,00, 0,00
196, 52243,27, 43874,62, 0,00, 0,00, 0,00, 0,00, 0,00, 0,00, 0,00, 0,00, 0,00
197, 33988,46, 42702,25, 0,00, 0,00, 0,00, 0,00, 0,00, 0,00, 0,00, 0,00, 0,00
198, 31919,03, 43131,69, 0,00, 0,00, 0,00, 0,00, 0,00, 0,00, 0,00, 0,00, 0,00
199, 48570,70, 44444,65, 0,00, 0,00, 0,00, 0,00, 0,00, 0,00, 0,00, 0,00, 0,00
200, 63591,96, 45191,85, 0,00, 0,00, 0,00, 0,00, 0,00, 0,00, 0,00, 0,00, 0,00
201, 52430,57, 43872,76, 0,00, 0,00, 0,00, 0,00, 0,00, 0,00, 0,00, 0,00, 0,00
202, 34155,23, 42712,82, 0,00, 0,00, 0,00, 0,00, 0,00, 0,00, 0,00, 0,00, 0,00
203, 31893,79, 43133,93, 0,00, 0,00, 0,00, 0,00, 0,00, 0,00, 0,00, 0,00, 0,00
204, 48352,79, 44431,04, 0,00, 0,00, 0,00, 0,00, 0,00, 0,00, 0,00, 0,00, 0,00
205, 63333,71, 45195,14, 0,00, 0,00, 0,00, 0,00, 0,00, 0,00, 0,00, 0,00, 0,00
206, 52559,34, 43897,04, 0,00, 0,00, 0,00, 0,00, 0,00, 0,00, 0,00, 0,00, 0,00
207, 34464,78, 42722,03, 0,00, 0,00, 0,00, 0,00, 0,00, 0,00, 0,00, 0,00, 0,00
208, 31805,73, 43118,17, 0,00, 0,00, 0,00, 0,00, 0,00, 0,00, 0,00, 0,00, 0,00
209, 48111,99, 44426,37, 0,00, 0,00, 0,00, 0,00, 0,00, 0,00, 0,00, 0,00, 0,00
210, 63308,68, 45214,94, 0,00, 0,00, 0,00, 0,00, 0,00, 0,00, 0,00, 0,00, 0,00
211, 52794,17, 43929,67, 0,00, 0,00, 0,00, 0,00, 0,00, 0,00, 0,00, 0,00, 0,00
212, 34633,54, 42736,89, 0,00, 0,00, 0,00, 0,00, 0,00, 0,00, 0,00, 0,00, 0,00
213, 31660,48, 43097,92, 0,00, 0,00, 0,00, 0,00, 0,00, 0,00, 0,00, 0,00, 0,00
214, 47883,67, 44397,20, 0,00, 0,00, 0,00, 0,00, 0,00, 0,00, 0,00, 0,00, 0,00
215, 63247,70, 45202,58, 0,00, 0,00, 0,00, 0,00, 0,00, 0,00, 0,00, 0,00, 0,00
216, 52979,62, 43926,18, 0,00, 0,00, 0,00, 0,00, 0,00, 0,00, 0,00, 0,00, 0,00
217, 34782,20, 42726,61, 0,00, 0,00, 0,00, 0,00, 0,00, 0,00, 0,00, 0,00, 0,00
218, 31529,79, 43077,93, 0,00, 0,00, 0,00, 0,00, 0,00, 0,00, 0,00, 0,00, 0,00
219, 47662,28, 44368,95, 0,00, 0,00, 0,00, 0,00, 0,00, 0,00, 0,00, 0,00, 0,00
220, 63176,82, 45190,22, 0,00, 0,00, 0,00, 0,00, 0,00, 0,00, 0,00, 0,00, 0,00
221, 53198,00, 43939,04, 0,00, 0,00, 0,00, 0,00, 0,00, 0,00, 0,00, 0,00, 0,00
222, 34934,32, 42722,50, 0,00, 0,00, 0,00, 0,00, 0,00, 0,00, 0,00, 0,00, 0,00
223, 31348,12, 43039,55, 0,00, 0,00, 0,00, 0,00, 0,00, 0,00, 0,00, 0,00, 0,00
224, 47436,57, 44349,28, 0,00, 0,00, 0,00, 0,00, 0,00, 0,00, 0,01, 0,00, 0,00
225, 63169,67, 45205,60, 0,00, 0,00, 0,00, 0,00, 0,00, 0,00, 0,00, 0,00, 0,00
226, 53460,14, 43978,35, 0,00, 0,00, 0,00, 0,00, 0,00, 0,00, 0,00, 0,00, 0,00
227, 35131,64, 42755,91, 0,00, 0,00, 0,00, 0,00, 0,00, 0,00, 0,00, 0,00, 0,00
228, 31242,42, 43052,72, 0,00, 0,00, 0,00, 0,00, 0,00, 0,00, 0,00, 0,00, 0,00
229, 47255,23, 44359,34, 0,00, 0,00, 0,00, 0,00, 0,00, 0,00, 0,00, 0,00, 0,00
230, 63127,94, 45215,54, 0,00, 0,00, 0,00, 0,00, 0,00, 0,00, 0,00, 0,00, 0,00
231, 53682,25, 43995,18, 0,00, 0,00, 0,00, 0,00, 0,00, 0,00, 0,00, 0,00, 0,00
232, 35308,54, 42765,34, 0,00, 0,00, 0,00, 0,00, 0,00, 0,00, 0,00, 0,00, 0,00
233, 31130,41, 43052,88, 0,00, 0,00, 0,00, 0,00, 0,00, 0,00, 0,00, 0,00, 0,00
234, 47053,37, 44353,97, 0,00, 0,00, 0,00, 0,00, 0,00, 0,00, 0,00, -0,00, 0,00
235, 63062,23, 45220,89, 0,00, 0,00, 0,00, 0,00, 0,00, 0,00, 0,00, 0,00, 0,00
236, 53903,00, 44015,81, 0,00, 0,00, 0,00, 0,00, 0,00, 0,00, 0,00, 0,00, 0,00
237, 35481,56, 42769,57, 0,00, 0,00, 0,00, 0,00, 0,00, 0,00, 0,00, 0,00, 0,00
238, 30999,23, 43034,91, 0,00, 0,00, 0,00, 0,00, 0,00, 0,00, 0,00, 0,00, 0,00
239, 46830,25, 44340,36, 0,00, 0,00, 0,00, 0,00, 0,00, 0,00, 0,00, 0,00, 0,00
240, 63018,95, 45236,20, 0,00, 0,00, 0,00, 0,00, 0,00, 0,00, 0,00, 0,00, 0,00
241, 54123,63, 44044,51, 0,00, 0,00, 0,00, 0,00, 0,00, 0,00, 0,00, 0,00, 0,00
242, 35662,00, 42786,45, 0,00, 0,00, 0,00, 0,00, 0,00, 0,00, 0,00, 0,00, 0,00
243, 30871,89, 43014,63, 0,00, 0,00, 0,00, 0,00, 0,00, 0,00, 0,00, 0,00, 0,00
244, 46602,07, 44312,96, 0,00, 0,00, 0,00, 0,00, 0,00, 0,00, 0,00, 0,00, 0,00
245, 62899,91, 45220,53, 0,00, 0,00, 0,00, 0,00, 0,00, 0,00, 0,00, 0,00, 0,00
246, 54314,49, 44054,10, 0,00, 0,00, 0,00, 0,00, 0,00, 0,00, 0,00, 0,00, 0,00
247, 35818,87, 42784,72, 0,00, 0,00, 0,00, 0,00, 0,00, 0,00, 0,00, 0,00, 0,00
248, 30736,64, 42989,89, 0,00, 0,00, 0,00, 0,00, 0,00, 0,00, 0,00, 0,00, 0,00
249, 46389,43, 44300,55, 0,00, 0,00, 0,00, 0,00, 0,00, 0,00, 0,00, 0,00, 0,00
250, 62851,74, 45223,57, 0,00, 0,00, 0,00, 0,00, 0,00, 0,00, 0,00, 0,00, 0,00
251, 54533,98, 44069,84, 0,00, 0,00, 0,00, 0,00, 0,00, 0,00, 0,00, 0,00, 0,00
252, 36013,04, 42798,47, 0,00, 0,00, 0,00, 0,00, 0,00, 0,00, 0,00, 0,00, 0,00
253, 30632,13, 42977,57, 0,00, 0,00, 0,00, 0,00, 0,00, 0,00, 0,00, 0,00, 0,00
254, 46180,89, 44279,77, 0,00, 0,00, 0,00, 0,00, 0,00, 0,00, 0,00, 0,00, 0,00
255, 62745,99, 45222,23, 0,00, 0,00, 0,00, 0,00, 0,00, 0,00, 0,00, 0,00, 0,00
0, 54734,01, 44095,05, 0,00, 0,00, 0,00, 0,00, 0,00, 0,00, 0,00, 0,00, 0,00
1, 36202,05, 42804,10, 0,00, 0,00, 0,00, 0,00, 0,00, 0,00, 0,00, 0,00, 0,00
2, 30555,08, 42965,77, 0,00, 0,00, 0,00, 0,00, 0,00, 0,00, 0,00, 0,00, 0,00
3, 46012,05, 44277,24, 0,00, 0,00, 0,00, 0,00, 0,00, 0,00, 0,00, 0,00, 0,00
4, 62675,50, 45221,87, 0,00, 0,00, 0,00, 0,00, 0,00, 0,00, 0,00, 0,00, 0,00
5, 54951,29, 44104,41, 0,00, 0,00, 0,00, 0,00, 0,00, 0,00, 0,00, 0,00, 0,00
6, 36382,43, 42823,10, 0,00, 0,00, 0,00, 0,00, 0,00, 0,00, 0,00, 0,00, 0,00
7, 30449,89, 42972,48, 0,00, 0,00, 0,00, 0,00, 0,00, 0,00, 0,00, 0,00, 0,00
8, 45816,38, 44276,14, 0,00, 0,00, 0,00, 0,00, 0,00, 0,00, 0,00, 0,01, 0,00
9, 62601,31, 45232,42, 0,00, 0,00, 0,00, 0,00, 0,00, 0,00, 0,00, 0,00, 0,00
10, 55147,00, 44126,32, 0,00, 0,00, 0,00, 0,00, 0,00, 0,00, 0,00, 0,00, 0,00
11, 36578,70, 42829,16, 0,00, 0,00, 0,00, 0,00, 0,00, 0,00, 0,00, 0,00, 0,00
12, 30369,94, 42953,12, 0,00, 0,00, 0,00, 0,00, 0,00, 0,00, 0,00, 0,00, 0,00
13, 45625,18, 44258,98, 0,00, 0,00, 0,00, 0,00, 0,00, 0,00, 0,00, 0,00, 0,00
14, 62499,97, 45227,10, 0,00, 0,00, 0,00, 0,00, 0,00, 0,00, 0,00, 0,00, 0,00
15, 55369,11, 44149,36, 0,00, 0,00, 0,00, 0,00, 0,00, 0,00, 0,00, 0,00, 0,00
16, 36781,87, 42846,04, 0,00, 0,00, 0,00, 0,00, 0,00, 0,00, 0,00, 0,00, 0,00
17, 30276,67, 42944,11, 0,00, 0,00, 0,00, 0,00, 0,00, 0,00, 0,00, 0,00, 0,00
18, 45394,49, 44244,11, 0,00, 0,00, 0,00, 0,00, 0,00, 0,00, 0,01, 0,01, 0,00
19, 62378,44, 45225,24, 0,00, 0,00, 0,00, 0,00, 0,00, 0,00, 0,00, 0,00, 0,00
20, 55570,59, 44169,82, 0,00, 0,00, 0,00, 0,00, 0,00, 0,00, 0,00, 0,00, 0,00
21, 36977,25, 42849,54, 0,00, 0,00, 0,00, 0,00, 0,00, 0,00, 0,00, 0,00, 0,00
22, 30183,01, 42922,43, 0,00, 0,00, 0,00, 0,00, 0,00, 0,00, 0,00, 0,00, 0,00
23, 45207,05, 44225,36, 0,00, 0,00, 0,00, 0,00, 0,00, 0,00, 0,00, 0,00, 0,00
24, 62287,13, 45219,23, 0,00, 0,00, 0,00, 0,00, 0,00, 0,00, 0,00, 0,00, 0,00
25, 55770,53, 44177,42, 0,00, 0,00, 0,00, 0,00, 0,00, 0,00, 0,00, 0,00, 0,00
26, 37171,87, 42858,33, 0,00, 0,00, 0,00, 0,00, 0,00, 0,00, 0,00, 0,00, 0,00
27, 30087,95, 42906,21, 0,00, 0,00, 0,00, 0,00, 0,00, 0,00, 0,00, 0,00, 0,00
28, 44942,20, 44203,70, 0,00, 0,00, 0,00, 0,00, 0,00, 0,00, 0,01, 0,01, 0,01
29, 62192,00, 45224,21, 0,00, 0,00, 0,00, 0,00, 0,00, 0,00, 0,00, 0,00, 0,00
30, 56015,01, 44214,68, 0,00, 0,00, 0,00, 0,00, 0,00, 0,00, 0,00, 0,00, 0,00
31, 37387,79, 42878,00, 0,00, 0,00, 0,00, 0,00, 0,00, 0,00, 0,00, 0,00, 0,00
32, 30016,54, 42900,51, 0,00, 0,00, 0,00, 0,00, 0,00, 0,00, 0,00, 0,00, 0,00
33, 44772,69, 44192,93, 0,00, 0,00, 0,00, 0,00, 0,00, 0,00, 0,00, 0,00, 0,00
34, 62061,92, 45231,55, 0,00, 0,00, 0,00, 0,00, 0,00, 0,00, 0,00, 0,00, 0,00
35, 56204,60, 44235,42, 0,00, 0,00, 0,00, 0,00, 0,00, 0,00, 0,00, 0,00, 0,00
36, 37582,78, 42889,69, 0,00, 0,00, 0,00, 0,00, 0,00, 0,00, 0,00, 0,00, 0,00
37, 29957,35, 42900,68, 0,00, 0,00, 0,00, 0,00, 0,00, 0,00, 0,01, 0,01, 0,01
38, 44585,09, 44198,98, 0,00, 0,00, 0,00, 0,00, 0,00, 0,00, 0,00, 0,00, 0,00
39, 61940,84, 45233,83, 0,00, 0,00, 0,00, 0,00, 0,00, 0,00, 0,00, 0,00, 0,00
40, 56393,88, 44248,76, 0,00, 0,00, 0,00, 0,00, 0,00, 0,00, 0,00, 0,00, 0,00
41, 37772,55, 42901,45, 0,00, 0,00, 0,00, 0,00, 0,00, 0,00, 0,00, 0,00, 0,00
42, 29883,74, 42889,09, 0,00, 0,00, 0,00, 0,00, 0,00, 0,00, 0,00, 0,00, 0,00
43, 44376,19, 44169,73, 0,00, 0,00, 0,00, 0,00, 0,00, 0,00, 0,00, 0,00, 0,00
44, 61811,58, 45221,24, 0,00, 0,00, 0,00, 0,00, 0,00, 0,00, 0,00, 0,00, 0,00
45, 56596,43, 44275,36, 0,00, 0,00, 0,00, 0,00, 0,00, 0,00, 0,00, 0,00, 0,00
46, 37974,61, 42911,77, 0,00, 0,00, 0,00, 0,00, 0,00, 0,00, 0,00, 0,00, 0,00
47, 29813,38, 42875,23, 0,00, 0,00, 0,00, 0,00, 0,00, 0,00, 0,01, 0,00, 0,01
48, 44157,23, 44156,23, 0,00, 0,00, 0,00, 0,00, 0,00, 0,00, 0,00, 0,00, 0,00
49, 61674,05, 45214,38, 0,00, 0,00, 0,00, 0,00, 0,00, 0,00, 0,00, 0,00, 0,00
50, 56796,18, 44285,93, 0,00, 0,00, 0,00, 0,00, 0,00, 0,00, 0,00, 0,00, 0,00
51, 38162,05, 42916,89, 0,00, 0,00, 0,00, 0,00, 0,00, 0,00, 0,00, 0,00, 0,00
52, 29737,03, 42866,04, 0,00, 0,00, 0,00, 0,00, 0,00, 0,00, 0,00, 0,00, 0,00
53, 43979,56, 44158,13, 0,00, 0,00, 0,00, 0,00, 0,00, 0,00, 0,00, 0,00, 0,00
54, 61567,30, 45219,68, 0,00, 0,00, 0,00, 0,00, 0,00, 0,00, 0,00, 0,00, 0,00
55, 56986,82, 44310,34, 0,00, 0,00, 0,00, 0,00, 0,00, 0,00, 0,00, 0,00, 0,00
56, 38353,18, 42940,02, 0,00, 0,00, 0,00, 0,00, 0,00, 0,00, 0,00, 0,00, 0,00
57, 29685,15, 42860,12, 0,00, 0,00, 0,00, 0,00, 0,00, 0,00, 0,00, 0,00, 0,01
58, 43770,30, 44131,93, 0,00, 0,00, 0,00, 0,00, 0,00, 0,00, 0,00, 0,00, 0,00
59, 61429,36, 45208,61, 0,00, 0,00, 0,00, 0,00, 0,00, 0,00, 0,00, 0,00, 0,00
60, 57173,95, 44323,78, 0,00, 0,00, 0,00, 0,00, 0,00, 0,00, 0,00, 0,00, 0,00
61, 38548,22, 42939,91, 0,00, 0,00, 0,00, 0,00, 0,00, 0,00, 0,00, 0,00, 0,00
62, 29619,23, 42842,59, 0,00, 0,00, 0,00, 0,00, 0,00, 0,00, 0,00, 0,00, 0,00
63, 43587,15, 44125,32, 0,00, 0,00, 0,00, 0,00, 0,00, 0,00, 0,00, 0,00, 0,00
64, 61287,18, 45205,69, 0,00, 0,00, 0,00, 0,00, 0,00, 0,00, 0,00, 0,00, 0,00
65, 57354,44, 44348,70, 0,00, 0,00, 0,00, 0,00, 0,00, 0,00, 0,00, 0,00, 0,00
66, 38740,58, 42965,77, 0,00, 0,00, 0,00, 0,00, 0,00, 0,00, 0,00, 0,00, 0,00
67, 29566,19, 42840,61, 0,00, 0,00, 0,00, 0,00, 0,00, 0,00, 0,00, 0,00, 0,00
68, 43405,03, 44121,31, 0,00, 0,00, 0,00, 0,00, 0,00, 0,00, 0,00, 0,00, 0,00
69, 61180,32, 45212,41, 0,00, 0,00, 0,00, 0,00, 0,00, 0,00, 0,00, 0,00, 0,00
70, 57561,04, 44371,81, 0,00, 0,00, 0,00, 0,00, 0,00, 0,00, 0,00, 0,00, 0,00
71, 38951,07, 42980,41, 0,00, 0,00, 0,00, 0,00, 0,00, 0,00, 0,00, 0,00, 0,00
72, 29532,89, 42828,42, 0,00, 0,00, 0,00, 0,00, 0,00, 0,00, 0,00, 0,00, 0,00
73, 43196,78, 44091,52, 0,00, 0,00, 0,00, 0,00, 0,00, 0,00, 0,00, 0,00, 0,00
74, 61040,67, 45196,43, 0,00, 0,00, 0,00, 0,00, 0,00, 0,00, 0,00, 0,00, 0,00
75, 57737,46, 44375,32, 0,00, 0,00, 0,00, 0,00, 0,00, 0,00, 0,00, 0,00, 0,00
76, 39125,36, 42976,21, 0,00, 0,00, 0,00, 0,00, 0,00, 0,00, 0,00, 0,00, 0,00
77, 29471,87, 42807,34, 0,00, 0,00, 0,00, 0,00, 0,00, 0,00, 0,00, 0,01, 0,00
78, 42991,86, 44075,76, 0,00, 0,00, 0,00, 0,00, 0,00, 0,00, 0,00, 0,00, 0,00
79, 60898,91, 45191,67, 0,00, 0,00, 0,00, 0,00, 0,00, 0,00, 0,00, 0,00, 0,00
80, 57935,14, 44390,85, 0,00, 0,00, 0,00, 0,00, 0,00, 0,00, 0,00, 0,00, 0,00
81, 39327,78, 42982,16, 0,00, 0,00, 0,00, 0,00, 0,00, 0,00, 0,00, 0,00, 0,00
82, 29430,45, 42791,90, 0,00, 0,00, 0,00, 0,00, 0,00, 0,00, 0,00, 0,00, 0,00
83, 42811,25, 44050,95, 0,00, 0,00, 0,00, 0,00, 0,00, 0,00, 0,00, 0,00, 0,00
84, 60762,21, 45174,53, 0,00, 0,00, 0,00, 0,00, 0,00, 0,00, 0,00, 0,00, 0,00
85, 58093,37, 44404,98, 0,00, 0,00, 0,00, 0,00, 0,00, 0,00, 0,00, 0,00, 0,00
86, 39502,39, 42996,62, 0,00, 0,00, 0,00, 0,00, 0,00, 0,00, 0,00, 0,00, 0,00
87, 29385,28, 42790,25, 0,00, 0,00, 0,00, 0,00, 0,00, 0,00, 0,01, 0,00, 0,00
88, 42614,94, 44048,87, 0,00, 0,00, 0,00, 0,00, 0,00, 0,00, 0,00, 0,00, 0,00
89, 60617,17, 45175,38, 0,00, 0,00, 0,00, 0,00, 0,00, 0,00, 0,00, 0,00, 0,00
90, 58268,56, 44420,58, 0,00, 0,00, 0,00, 0,00, 0,00, 0,00, 0,00, 0,00, 0,00
91, 39710,36, 43012,89, 0,00, 0,00, 0,00, 0,00, 0,00, 0,00, 0,00, 0,00, 0,00
92, 29356,27, 42784,99, 0,00, 0,00, 0,00, 0,00, 0,00, 0,00, 0,00, 0,00, 0,00
93, 42420,35, 44038,32, 0,00, 0,00, 0,00, 0,00, 0,00, 0,00, 0,00, 0,00, 0,00
94, 60466,14, 45170,17, 0,00, 0,00, 0,00, 0,00, 0,00, 0,00, 0,00, 0,00, 0,00
95, 58429,11, 44426,06, 0,00, 0,00, 0,00, 0,00, 0,00, 0,00, 0,00, 0,00, 0,00
96, 39883,78, 43000,69, 0,00, 0,00, 0,00, 0,00, 0,00, 0,00, 0,00, 0,00, 0,00
97, 29324,73, 42759,13, 0,00, 0,00, 0,00, 0,00, 0,00, 0,00, 0,01, -0,00, 0,00
98, 42218,62, 44001,15, 0,00, 0,00, 0,00, 0,00, 0,00, 0,00, 0,00, 0,00, 0,00
99, 60303,02, 45145,29, 0,00, 0,00, 0,00, 0,00, 0,00, 0,00, 0,00, 0,00, 0,00
100, 58615,23, 44438,89, 0,00, 0,00, 0,00, 0,00, 0,00, 0,00, 0,00, 0,00, 0,00
101, 40076,03, 43006,16, 0,00, 0,00, 0,00, 0,00, 0,00, 0,00, 0,00, 0,00, 0,00
102, 29275,62, 42742,03, 0,00, 0,00, 0,00, 0,00, 0,00, 0,00, 0,00, 0,00, 0,00
103, 42044,30, 43994,60, 0,00, 0,00, 0,00, 0,00, 0,00, 0,00, 0,00, 0,00, 0,00
104, 60154,84, 45139,26, 0,00, 0,00, 0,00, 0,00, 0,00, 0,00, 0,00, 0,00, 0,00
105, 58791,81, 44459,38, 0,00, 0,00, 0,00, 0,00, 0,00, 0,00, 0,00, 0,00, 0,00
106, 40285,96, 43024,29, 0,00, 0,00, 0,00, 0,00, 0,00, 0,00, 0,00, 0,00, 0,00
107, 29268,07, 42733,29, 0,00, 0,00, 0,00, 0,00, 0,00, 0,00, 0,00, 0,00, 0,00
108, 41844,34, 43968,79, 0,00, 0,00, 0,00, 0,00, 0,00, 0,00, 0,00, 0,00, 0,00
109, 59976,39, 45124,06, 0,00, 0,00, 0,00, 0,00, 0,00, 0,00, 0,00, 0,00, 0,00
110, 58941,97, 44470,83, 0,00, 0,00, 0,00, 0,00, 0,00, 0,00, 0,00, 0,00, 0,00
111, 40470,74, 43038,30, 0,00, 0,00, 0,00, 0,00, 0,00, 0,00, 0,00, 0,00, 0,00
112, 29240,91, 42730,63, 0,00, 0,00, 0,00, 0,00, 0,00, 0,00, 0,00, 0,00, 0,00
113, 41652,23, 43967,29, 0,00, 0,00, 0,00, 0,00, 0,00, 0,00, 0,00, 0,00, 0,00
114, 59820,35, 45123,32, 0,00, 0,00, 0,00, 0,00, 0,00, 0,00, 0,00, 0,00, 0,00
115, 59123,43, 44494,54, 0,00, 0,00, 0,00, 0,00, 0,00, 0,00, 0,00, 0,00, 0,00
116, 40688,00, 43052,81, 0,00, 0,00, 0,00, 0,00, 0,00, 0,00, 0,00, 0,00, 0,00
117, 29226,16, 42719,97, 0,00, 0,00, 0,00, 0,00, 0,00, 0,00, 0,00, 0,00, 0,00
118, 41446,39, 43948,04, 0,00, 0,00, 0,00, 0,00, 0,00, 0,00, 0,00, 0,00, 0,00
119, 59657,34, 45119,41, 0,00, 0,00, 0,00, 0,00, 0,00, 0,00, 0,00, 0,00, 0,00
120, 59283,75, 44514,66, 0,00, 0,00, 0,00, 0,00, 0,00, 0,00, 0,00, 0,00, 0,00
121, 40866,18, 43061,95, 0,00, 0,00, 0,00, 0,00, 0,00, 0,00, 0,00, 0,00, 0,00
122, 29215,05, 42712,21, 0,00, 0,00, 0,00, 0,00, 0,00, 0,00, 0,00, 0,00, 0,00
123, 41278,29, 43935,01, 0,00, 0,00, 0,00, 0,00, 0,00, 0,00, 0,00, 0,00, 0,00
124, 59499,70, 45109,08, 0,00, 0,00, 0,00, 0,00, 0,00, 0,00, 0,00, 0,00, 0,00
125, 59456,33, 44528,47, 0,00, 0,00, 0,00, 0,00, 0,00, 0,00, 0,00, 0,00, 0,00
126, 41075,89, 43078,23, 0,00, 0,00, 0,00, 0,00, 0,00, 0,00, 0,00, 0,00, 0,00
127, 29209,79, 42700,70, 0,00, 0,00, 0,00, 0,00, 0,00, 0,00, 0,00, 0,00, 0,00
128, 41084,32, 43920,80, 0,00, 0,00, 0,00, 0,00, 0,00, 0,00, 0,00, 0,00, 0,00
129, 59359,88, 45113,26, 0,00, 0,00, 0,00, 0,00, 0,00, 0,00, 0,00, 0,00, 0,00
130, 59611,07, 44553,24, 0,00, 0,00, 0,00, 0,00, 0,00, 0,00, 0,00, 0,00, 0,00
131, 41261,16, 43091,95, 0,00, 0,00, 0,00, 0,00, 0,00, 0,00, 0,00, 0,00, 0,00
132, 29214,27, 42698,38, 0,00, 0,00, 0,00, 0,00, 0,00, 0,00, 0,00, 0,00, 0,00
133, 40899,42, 43903,94, 0,00, 0,00, 0,00, 0,00, 0,00, 0,00, 0,00, 0,00, 0,00
134, 59179,66, 45104,79, 0,00, 0,00, 0,00, 0,00, 0,00, 0,00, 0,00, 0,00, 0,00
135, 59782,62, 44586,23, 0,00, 0,00, 0,00, 0,00, 0,00, 0,00, 0,00, 0,00, 0,00
136, 41470,91, 43118,95, 0,00, 0,00, 0,00, 0,00, 0,00, 0,00, 0,01, 0,00, 0,00
137, 29232,41, 42704,64, 0,00, 0,00, 0,00, 0,00, 0,00, 0,00, 0,00, 0,00, 0,00
138, 40731,23, 43902,20, 0,00, 0,00, 0,00, 0,00, 0,00, 0,00, 0,00, 0,00, 0,00
139, 59017,41, 45094,78, 0,00, 0,00, 0,00, 0,00, 0,00, 0,00, 0,00, 0,00, 0,00
140, 59948,85, 44592,13, 0,00, 0,00, 0,00, 0,00, 0,00, 0,00, 0,00, 0,00, 0,00
141, 41657,97, 43118,48, 0,00, 0,00, 0,00, 0,00, 0,00, 0,00, 0,00, 0,00, 0,00
142, 29217,15, 42688,39, 0,00, 0,00, 0,00, 0,00, 0,00, 0,00, 0,00, 0,00, 0,00
143, 40558,00, 43888,74, 0,00, 0,00, 0,00, 0,00, 0,00, 0,00, 0,00, 0,00, 0,00
144, 58855,85, 45087,04, 0,00, 0,00, 0,00, 0,00, 0,00, 0,00, 0,00, 0,00, 0,00
145, 60072,46, 44605,32, 0,00, 0,00, 0,00, 0,00, 0,00, 0,00, 0,00, 0,00, 0,00
146, 41834,89, 43133,70, 0,00, 0,00, 0,00, 0,00, 0,00, 0,00, 0,01, 0,00, 0,00
147, 29235,92, 42690,13, 0,00, 0,00, 0,00, 0,00, 0,00, 0,00, 0,00, 0,00, 0,00
148, 40384,88, 43880,18, 0,00, 0,00, 0,00, 0,00, 0,00, 0,00, 0,00, 0,00, 0,00
149, 58683,45, 45078,53, 0,00, 0,00, 0,00, 0,00, 0,00, 0,00, 0,00, 0,00, 0,00
150, 60229,57, 44615,11, 0,00, 0,00, 0,00, 0,00, 0,00, 0,00, 0,00, 0,00, 0,00
151, 42022,13, 43131,78, 0,00, 0,00, 0,00, 0,00, 0,00, 0,00, 0,00, 0,00, 0,00
152, 29219,38, 42672,09, 0,00, 0,00, 0,00, 0,00, 0,00, 0,00, 0,00, 0,00, 0,00
153, 40176,90, 43861,41, 0,00, 0,00, 0,00, 0,00, 0,00, 0,00, 0,00, 0,00, 0,00
154, 58509,42, 45069,07, 0,00, 0,00, 0,00, 0,00, 0,00, 0,00, 0,00, 0,00, 0,00
155, 60360,77, 44639,65, 0,00, 0,00, 0,00, 0,00, 0,00, 0,00, 0,00, 0,00, 0,00
156, 42218,51, 43154,71, 0,00, 0,00, 0,00, 0,00, 0,00, 0,00, 0,01, 0,00, 0,00
157, 29254,59, 42675,71, 0,00, 0,00, 0,00, 0,00, 0,00, 0,00, 0,00, 0,00, 0,00
158, 40003,50, 43846,54, 0,00, 0,00, 0,00, 0,00, 0,00, 0,00, 0,00, 0,00, 0,00
159, 58336,02, 45060,07, 0,00, 0,00, 0,00, 0,00, 0,00, 0,00, 0,00, 0,00, 0,00
160, 60511,71, 44654,92, 0,00, 0,00, 0,00, 0,00, 0,00, 0,00, 0,00, 0,00, 0,00
161, 42412,14, 43166,87, 0,00, 0,00, 0,00, 0,00, 0,00, 0,00, 0,00, 0,00, 0,00
162, 29271,31, 42672,96, 0,00, 0,00, 0,00, 0,00, 0,00, 0,00, 0,00, 0,00, 0,00
163, 39803,67, 43833,25, 0,00, 0,00, 0,00, 0,00, 0,00, 0,00, 0,00, 0,00, 0,00
164, 58154,03, 45058,52, 0,00, 0,00, 0,00, 0,00, 0,00, 0,00, 0,00, 0,00, 0,00
165, 60654,83, 44671,37, 0,00, 0,00, 0,00, 0,00, 0,00, 0,00, 0,00, 0,00, 0,00
166, 42589,86, 43173,80, 0,00, 0,00, 0,00, 0,00, 0,00, 0,00, 0,01, 0,00, 0,00
167, 29280,25, 42665,77, 0,00, 0,00, 0,00, 0,00, 0,00, 0,00, 0,00, 0,00, 0,00
168, 39638,83, 43826,70, 0,00, 0,00, 0,00, 0,00, 0,00, 0,00, 0,00, 0,00, 0,00
169, 57981,90, 45043,32, 0,00, 0,00, 0,00, 0,00, 0,00, 0,00, 0,00, 0,00, 0,00
170, 60795,02, 44687,89, 0,00, 0,00, 0,00, 0,00, 0,00, 0,00, 0,00, 0,00, 0,00
171, 42799,10, 43189,74, 0,00, 0,00, 0,00, 0,00, 0,00, 0,00, 0,00, 0,00, 0,00
172, 29300,07, 42650,39, 0,00, 0,00, 0,00, 0,00, 0,00, 0,00, 0,00, 0,00, 0,00
173, 39427,27, 43788,50, 0,00, 0,00, 0,00, 0,00, 0,00, 0,00, 0,00, 0,00, 0,00
174, 57791,66, 45023,79, 0,00, 0,00, 0,00, 0,00, 0,00, 0,00, 0,00, 0,00, 0,00
175, 60913,46, 44700,80, 0,00, 0,00, 0,00, 0,00, 0,00, 0,00, 0,00, 0,00, 0,00
176, 42966,02, 43203,82, 0,00, 0,00, 0,00, 0,00, 0,00, 0,00, 0,01, -0,00, 0,00
177, 29337,07, 42657,54, 0,00, 0,00, 0,00, 0,00, 0,00, 0,00, 0,00, 0,00, 0,00
178, 39274,32, 43787,45, 0,00, 0,00, 0,00, 0,00, 0,00, 0,00, 0,00, 0,00, 0,00
179, 57627,51, 45015,59, 0,00, 0,00, 0,00, 0,00, 0,00, 0,00, 0,00, 0,00, 0,00
180, 61067,27, 44714,46, 0,00, 0,00, 0,00, 0,00, 0,00, 0,00, 0,00, 0,00, 0,00
181, 43188,40, 43214,17, 0,00, 0,00, 0,00, 0,00, 0,00, 0,00, 0,00, 0,00, 0,00
182, 29366,30, 42647,21, 0,00, 0,00, 0,00, 0,00, 0,00, 0,00, 0,00, 0,00, 0,00
183, 39087,32, 43779,27, 0,00, 0,00, 0,00, 0,00, 0,00, 0,00, 0,00, 0,00, 0,00
184, 57422,43, 45011,70, 0,00, 0,00, 0,00, 0,00, 0,00, 0,00, 0,00, 0,00, 0,00
185, 61187,96, 44731,94, 0,00, 0,00, 0,00, 0,00, 0,00, 0,00, 0,00, 0,00, 0,00
186, 43376,80, 43229,68, 0,00, 0,00, 0,00, 0,00, 0,00, 0,00, 0,01, -0,01, 0,01
187, 29394,22, 42634,86, 0,00, 0,00, 0,00, 0,00, 0,00, 0,00, 0,00, 0,00, 0,00
188, 38898,70, 43761,09, 0,00, 0,00, 0,00, 0,00, 0,00, 0,00, 0,00, 0,00, 0,00
189, 57244,87, 45001,64, 0,00, 0,00, 0,00, 0,00, 0,00, 0,00, 0,00, 0,00, 0,00
190, 61329,92, 44747,95, 0,00, 0,00, 0,00, 0,00, 0,00, 0,00, 0,00, 0,00, 0,00
191, 43558,90, 43234,38, 0,00, 0,00, 0,00, 0,00, 0,00, 0,00, 0,00, 0,00, 0,00
192, 29437,31, 42633,94, 0,00, 0,00, 0,00, 0,00, 0,00, 0,00, 0,00, 0,00, 0,00
193, 38726,59, 43747,46, 0,00, 0,00, 0,00, 0,00, 0,00, 0,00, 0,00, 0,00, 0,00
194, 57060,61, 44986,82, 0,00, 0,00, 0,00, 0,00, 0,00, 0,00, 0,00, 0,00, 0,00
195, 61456,79, 44765,67, 0,00, 0,00, 0,00, 0,00, 0,00, 0,00, 0,00, 0,00, 0,00
196, 43772,89, 43255,95, 0,00, 0,00, 0,00, 0,00, 0,00, 0,00, 0,01, 0,00, 0,01
197, 29477,93, 42635,30, 0,00, 0,00, 0,00, 0,00, 0,00, 0,00, 0,00, 0,00, 0,00
198, 38516,55, 43734,74, 0,00, 0,00, 0,00, 0,00, 0,00, 0,00, 0,00, 0,00, 0,00
199, 56872,96, 44982,48, 0,00, 0,00, 0,00, 0,00, 0,00, 0,00, 0,00, 0,00, 0,00
200, 61588,57, 44777,32, 0,00, 0,00, 0,00, 0,00, 0,00, 0,00, 0,00, 0,00, 0,00
201, 43982,66, 43272,37, 0,00, 0,00, 0,00, 0,00, 0,00, 0,00, 0,00, 0,00, 0,00
202, 29535,35, 42633,98, 0,00, 0,00, 0,00, 0,00, 0,00, 0,00, 0,00, 0,00, 0,00
203, 38353,76, 43727,07, 0,00, 0,00, 0,00, 0,00, 0,00, 0,00, 0,00, 0,00, 0,00
204, 56699,07, 44981,43, 0,00, 0,00, 0,00, 0,00, 0,00, 0,00, 0,00, 0,00, 0,00
205, 61729,08, 44809,57, 0,00, 0,00, 0,00, 0,00, 0,00, 0,00, 0,00, 0,00, 0,00
206, 44194,38, 43294,63, 0,00, 0,00, 0,00, 0,00, 0,00, 0,00, 0,00, 0,00, 0,01
207, 29597,42, 42639,48, 0,00, 0,00, 0,00, 0,00, 0,00, 0,00, 0,00, 0,00, 0,00
208, 38172,62, 43706,80, 0,00, 0,00, 0,00, 0,00, 0,00, 0,00, 0,00, 0,00, 0,00
209, 56482,59, 44963,57, 0,00, 0,00, 0,00, 0,00, 0,00, 0,00, 0,00, 0,00, 0,00
210, 61821,59, 44811,07, 0,00, 0,00, 0,00, 0,00, 0,00, 0,00, 0,00, 0,00, 0,00
211, 44356,14, 43292,33, 0,00, 0,00, 0,00, 0,00, 0,00, 0,00, 0,00, 0,00, 0,00
212, 29660,79, 42634,34, 0,00, 0,00, 0,00, 0,00, 0,00, 0,00, 0,00, 0,00, 0,00
213, 38009,99, 43700,16, 0,00, 0,00, 0,00, 0,00, 0,00, 0,00, 0,00, 0,00, 0,00
214, 56301,94, 44956,38, 0,00, 0,00, 0,00, 0,00, 0,00, 0,00, 0,00, 0,00, 0,00
215, 61960,24, 44834,96, 0,00, 0,00, 0,00, 0,00, 0,00, 0,00, 0,00, 0,00, 0,00
216, 44589,23, 43313,37, 0,00, 0,00, 0,00, 0,00, 0,00, 0,00, 0,00, 0,00, 0,01
217, 29706,25, 42632,35, 0,00, 0,00, 0,00, 0,00, 0,00, 0,00, 0,00, 0,00, 0,00
218, 37813,54, 43683,04, 0,00, 0,00, 0,00, 0,00, 0,00, 0,00, 0,00, 0,00, 0,00
219, 56096,73, 44936,66, 0,00, 0,00, 0,00, 0,00, 0,00, 0,00, 0,00, 0,00, 0,00
220, 62066,03, 44844,57, 0,00, 0,00, 0,00, 0,00, 0,00, 0,00, 0,00, 0,00, 0,00
221, 44794,79, 43330,15, 0,00, 0,00, 0,00, 0,00, 0,00, 0,00, 0,00, 0,00, 0,00
222, 29778,60, 42631,17, 0,00, 0,00, 0,00, 0,00, 0,00, 0,00, 0,00, 0,00, 0,00
223, 37634,26, 43678,39, 0,00, 0,00, 0,00, 0,00, 0,00, 0,00, 0,00, 0,00, 0,00
224, 55888,64, 44931,34, 0,00, 0,00, 0,00, 0,00, 0,00, 0,00, 0,00, 0,00, 0,00
225, 62179,62, 44848,57, 0,00, 0,00, 0,00, 0,00, 0,00, 0,00, 0,01, -0,00, 0,00
226, 44992,90, 43329,05, 0,00, 0,00, 0,00, 0,00, 0,00, 0,00, 0,00, 0,00, 0,00
227, 29844,52, 42623,81, 0,00, 0,00, 0,00, 0,00, 0,00, 0,00, 0,00, 0,00, 0,00
228, 37461,93, 43655,59, 0,00, 0,00, 0,00, 0,00, 0,00, 0,00, 0,00, 0,00, 0,00
229, 55702,51, 44919,52, 0,00, 0,00, 0,00, 0,00, 0,00, 0,00, 0,00, 0,00, 0,00
230, 62285,95, 44871,82, 0,00, 0,00, 0,00, 0,00, 0,00, 0,00, 0,00, 0,00, 0,00
231, 45205,04, 43349,66, 0,00, 0,00, 0,00, 0,00, 0,00, 0,00, 0,00, 0,00, 0,00
232, 29911,17, 42615,19, 0,00, 0,00, 0,00, 0,00, 0,00, 0,00, 0,00, 0,00, 0,00
233, 37275,42, 43632,35, 0,00, 0,00, 0,00, 0,00, 0,00, 0,00, 0,00, 0,00, 0,00
234, 55498,62, 44906,11, 0,00, 0,00, 0,00, 0,00, 0,00, 0,00, 0,00, 0,00, 0,00
235, 62392,99, 44888,36, 0,00, 0,00, 0,00, 0,00, 0,00, 0,00, 0,00, -0,00, -0,00
236, 45401,33, 43372,93, 0,00, 0,00, 0,00, 0,00, 0,00, 0,00, 0,00, 0,00, 0,00
237, 30012,76, 42629,83, 0,00, 0,00, 0,00, 0,00, 0,00, 0,00, 0,00, 0,00, 0,00
238, 37116,84, 43634,49, 0,00, 0,00, 0,00, 0,00, 0,00, 0,00, 0,00, 0,00, 0,00
239, 55300,98, 44894,62, 0,00, 0,00, 0,00, 0,00, 0,00, 0,00, 0,00, 0,00, 0,00
240, 62511,23, 44911,16, 0,00, 0,00, 0,00, 0,00, 0,00, 0,00, 0,00, 0,00, 0,00
241, 45632,71, 43384,78, 0,00, 0,00, 0,00, 0,00, 0,00, 0,00, 0,00, 0,00, 0,00
242, 30072,46, 42619,14, 0,00, 0,00, 0,00, 0,00, 0,00, 0,00, 0,00, 0,00, 0,00
243, 36937,82, 43619,59, 0,00, 0,00, 0,00, 0,00, 0,00, 0,00, 0,00, 0,00, 0,00
244, 55106,95, 44885,92, 0,00, 0,00, 0,00, 0,00, 0,00, 0,00, 0,00, 0,00, 0,00
245, 62605,54, 44917,73, 0,00, 0,00, 0,00, 0,00, 0,00, 0,00, 0,01, 0,00, -0,00
246, 45838,66, 43404,74, 0,00, 0,00, 0,00, 0,00, 0,00, 0,00, 0,00, 0,00, 0,00
247, 30172,13, 42633,40, 0,00, 0,00, 0,00, 0,00, 0,00, 0,00, 0,00, 0,00, 0,00
248, 36755,27, 43600,56, 0,00, 0,00, 0,00, 0,00, 0,00, 0,00, 0,00, 0,00, 0,00
249, 54904,24, 44864,04, 0,00, 0,00, 0,00, 0,00, 0,00, 0,00, 0,00, 0,00, 0,00
250, 62704,44, 44922,58, 0,00, 0,00, 0,00, 0,00, 0,00, 0,00, 0,00, 0,00, 0,00
251, 46042,42, 43415,27, 0,00, 0,00, 0,00, 0,00, 0,00, 0,00, 0,00, 0,00, 0,00
252, 30243,68, 42622,45, 0,00, 0,00, 0,00, 0,00, 0,00, 0,00, 0,00, 0,00, 0,00
253, 36571,99, 43586,68, 0,00, 0,00, 0,00, 0,00, 0,00, 0,00, 0,00, 0,00, 0,00
254, 54699,41, 44866,66, 0,00, 0,00, 0,00, 0,00, 0,00, 0,00, 0,00, 0,00, 0,00
255, 62795,91, 44950,95, 0,00, 0,00, 0,00, 0,00, 0,00, 0,00, 0,01, 0,00, 0,00
0, 46228,23, 43421,30, 0,00, 0,00, 0,00, 0,00, 0,00, 0,00, 0,00, 0,00, 0,00
1, 30296,31, 42610,98, 0,00, 0,00, 0,00, 0,00, 0,00, 0,00, 0,00, 0,00, 0,00
2, 36391,43, 43562,32, 0,00, 0,00, 0,00, 0,00, 0,00, 0,00, 0,00, 0,00, 0,00
3, 54496,88, 44838,40, 0,00, 0,00, 0,00, 0,00, 0,00, 0,00, 0,00, 0,00, 0,00
4, 62885,25, 44953,22, 0,00, 0,00, 0,00, 0,00, 0,00, 0,00, 0,00, 0,00, 0,00
5, 46441,52, 43432,77, 0,00, 0,00, 0,00, 0,00, 0,00, 0,00, 0,00, 0,00, 0,00
6, 30395,73, 42610,58, 0,00, 0,00, 0,00, 0,00, 0,00, 0,00, 0,00, 0,00, 0,00
7, 36215,37, 43543,75, 0,00, 0,00, 0,00, 0,00, 0,00, 0,00, 0,00, 0,00, 0,00
8, 54281,14, 44824,10, 0,00, 0,00, 0,00, 0,00, 0,00, 0,00, 0,00, 0,00, 0,00
9, 62960,39, 44959,19, 0,00, 0,00, 0,00, 0,00, 0,00, 0,00, 0,01, 0,00, 0,00
10, 46637,00, 43438,45, 0,00, 0,00, 0,00, 0,00, 0,00, 0,00, 0,00, 0,00, 0,00
11, 30480,92, 42601,82, 0,00, 0,00, 0,00, 0,00, 0,00, 0,00, 0,00, 0,00, 0,00
12, 36029,63, 43516,63, 0,00, 0,00, 0,00, 0,00, 0,00, 0,00, 0,00, 0,00, 0,00
13, 54069,92, 44800,58, 0,00, 0,00, 0,00, 0,00, 0,00, 0,00, 0,00, 0,00, 0,00
14, 63032,48, 44967,33, 0,00, 0,00, 0,00, 0,00, 0,00, 0,00, 0,00, 0,00, 0,00
15, 46836,71, 43455,16, 0,00, 0,00, 0,00, 0,00, 0,00, 0,00, 0,00, 0,00, 0,00
16, 30577,25, 42609,24, 0,00, 0,00, 0,00, 0,00, 0,00, 0,00, 0,00, 0,00, 0,00
17, 35847,64, 43507,20, 0,00, 0,00, 0,00, 0,00, 0,00, 0,00, 0,00, 0,00, 0,00
18, 53835,80, 44784,49, 0,00, 0,00, 0,00, 0,00, 0,00, 0,00, 0,00, 0,00, 0,00
19, 63084,18, 44974,68, 0,00, 0,00, 0,00, 0,00, 0,00, 0,00, 0,01, 0,00, 0,00
20, 47035,51, 43463,61, 0,00, 0,00, 0,00, 0,00, 0,00, 0,00, 0,00, 0,00, 0,00
21, 30664,71, 42604,64, 0,00, 0,00, 0,00, 0,00, 0,00, 0,00, 0,00, 0,00, 0,00
22, 35707,98, 43495,58, 0,00, 0,00, 0,00, 0,00, 0,00, 0,00, 0,00, 0,00, 0,00
23, 53681,36, 44783,37, 0,00, 0,00, 0,00, 0,00, 0,00, 0,00, 0,00, 0,00, 0,00
24, 63165,85, 44995,34, 0,00, 0,00, 0,00, 0,00, 0,00, 0,00, 0,00, 0,00, 0,00
25, 47225,57, 43483,77, 0,00, 0,00, 0,00, 0,00, 0,00, 0,00, 0,00, 0,00, 0,00
26, 30760,22, 42609,15, 0,00, 0,00, 0,00, 0,00, 0,00, 0,00, 0,00, 0,00, 0,00
27, 35539,36, 43489,23, 0,00, 0,00, 0,00, 0,00, 0,00, 0,00, 0,00, 0,00, 0,00
28, 53490,72, 44780,31, 0,00, 0,00, 0,00, 0,00, 0,00, 0,00, 0,00, 0,00, 0,00
29, 63237,91, 45010,55, 0,00, 0,00, 0,00, 0,00, 0,00, 0,00, 0,01, 0,00, 0,00
30, 47425,84, 43506,30, 0,00, 0,00, 0,00, 0,00, 0,00, 0,00, 0,00, 0,00, 0,00
31, 30854,64, 42612,53, 0,00, 0,00, 0,00, 0,00, 0,00, 0,00, 0,00, 0,00, 0,00
32, 35373,55, 43465,60, 0,00, 0,00, 0,00, 0,00, 0,00, 0,00, 0,00, 0,00, 0,00
33, 53278,31, 44763,70, 0,00, 0,00, 0,00, 0,00, 0,00, 0,00, 0,00, 0,00, 0,00
34, 63291,58, 45027,68, 0,00, 0,00, 0,00, 0,00, 0,00, 0,00, 0,00, 0,00, 0,00
35, 47628,23, 43519,80, 0,00, 0,00, 0,00, 0,00, 0,00, 0,00, 0,00, 0,00, 0,00
36, 30965,93, 42616,21, 0,00, 0,00, 0,00, 0,00, 0,00, 0,00, 0,00, 0,00, 0,00
37, 35228,94, 43463,08, 0,00, 0,00, 0,00, 0,00, 0,00, 0,00, 0,00, 0,00, 0,00
38, 53100,28, 44750,83, 0,00, 0,00, 0,00, 0,00, 0,00, 0,00, 0,00, 0,00, 0,00
39, 63344,35, 45034,88, 0,00, 0,00, 0,00, 0,00, 0,00, 0,00, 0,00, 0,00, -0,00
40, 47796,07, 43524,84, 0,00, 0,00, 0,00, 0,00, 0,00, 0,00, 0,00, 0,00, 0,00
41, 31042,73, 42602,42, 0,00, 0,00, 0,00, 0,00, 0,00, 0,00, 0,00, 0,00, 0,00
42, 35062,55, 43435,45, 0,00, 0,00, 0,00, 0,00, 0,00, 0,00, 0,00, 0,00, 0,00
43, 52903,65, 44733,21, 0,00, 0,00, 0,00, 0,00, 0,00, 0,00, 0,00, 0,00, 0,00
44, 63415,45, 45040,89, 0,00, 0,00, 0,00, 0,00, 0,00, 0,00, 0,00, 0,00, 0,00
45, 48003,07, 43536,52, 0,00, 0,00, 0,00, 0,00, 0,00, 0,00, 0,00, 0,00, 0,00
46, 31147,27, 42601,93, 0,00, 0,00, 0,00, 0,00, 0,00, 0,00, 0,00, 0,00, 0,00
47, 34907,03, 43422,31, 0,00, 0,00, 0,00, 0,00, 0,00, 0,00, 0,00, 0,00, 0,00
48, 52706,75, 44720,21, 0,00, 0,00, 0,00, 0,00, 0,00, 0,00, 0,00, 0,00, 0,00
49, 63440,42, 45041,42, 0,00, 0,00, 0,00, 0,00, 0,00, 0,00, 0,01, 0,00, 0,00
50, 48178,78, 43548,08, 0,00, 0,00, 0,00, 0,00, 0,00, 0,00, 0,00, 0,00, 0,00
51, 31259,79, 42615,16, 0,00, 0,00, 0,00, 0,00, 0,00, 0,00, 0,00, 0,00, 0,00
52, 34782,60, 43420,18, 0,00, 0,00, 0,00, 0,00, 0,00, 0,00, 0,00, 0,00, 0,00
53, 52542,87, 44714,93, 0,00, 0,00, 0,00, 0,00, 0,00, 0,00, 0,00, 0,00, 0,00
54, 63497,66, 45059,08, 0,00, 0,00, 0,00, 0,00, 0,00, 0,00, 0,00, 0,00, 0,00
55, 48377,45, 43561,11, 0,00, 0,00, 0,00, 0,00, 0,00, 0,00, 0,00, 0,00, 0,00
56, 31368,91, 42616,64, 0,00, 0,00, 0,00, 0,00, 0,00, 0,00, 0,00, 0,00, 0,00
57, 34608,23, 43403,29, 0,00, 0,00, 0,00, 0,00, 0,00, 0,00, 0,00, 0,00, 0,00
58, 52324,27, 44707,71, 0,00, 0,00, 0,00, 0,00, 0,00, 0,00, 0,00, 0,00, 0,00
59, 63548,13, 45087,33, 0,00, 0,00, 0,00, 0,00, 0,00, 0,00, 0,00, 0,01, 0,00
60, 48597,88, 43603,69, 0,00, 0,00, 0,00, 0,00, 0,00, 0,00, 0,00, 0,00, 0,00
61, 31496,45, 42633,16, 0,00, 0,00, 0,00, 0,00, 0,00, 0,00, 0,00, 0,00, 0,00
62, 34463,82, 43399,06, 0,00, 0,00, 0,00, 0,00, 0,00, 0,00, 0,00, 0,00, 0,00
63, 52138,71, 44695,02, 0,00, 0,00, 0,00, 0,00, 0,00, 0,00, 0,00, 0,00, 0,00
64, 63607,18, 45089,34, 0,00, 0,00, 0,00, 0,00, 0,00, 0,00, 0,00, 0,00, 0,00
65, 48791,98, 43609,97, 0,00, 0,00, 0,00, 0,00, 0,00, 0,00, 0,00, 0,00, 0,00
66, 31605,32, 42626,16, 0,00, 0,00, 0,00, 0,00, 0,00, 0,00, 0,00, 0,00, 0,00
67, 34316,43, 43376,15, 0,00, 0,00, 0,00, 0,00, 0,00, 0,00, 0,00, 0,00, 0,00
68, 51942,68, 44676,38, 0,00, 0,00, 0,00, 0,00, 0,00, 0,00, 0,00, 0,01, 0,01
69, 63610,54, 45093,10, 0,00, 0,00, 0,00, 0,00, 0,00, 0,00, 0,00, 0,00, 0,00
70, 48974,59, 43620,14, 0,00, 0,00, 0,00, 0,00, 0,00, 0,00, 0,00, 0,00, 0,00
71, 31735,65, 42635,97, 0,00, 0,00, 0,00, 0,00, 0,00, 0,00, 0,00, 0,00, 0,00
72, 34187,57, 43371,97, 0,00, 0,00, 0,00, 0,00, 0,00, 0,00, 0,00, 0,00, 0,00
73, 51768,38, 44674,86, 0,00, 0,00, 0,00, 0,00, 0,00, 0,00, 0,00, 0,00, 0,00
74, 63661,70, 45110,54, 0,00, 0,00, 0,00, 0,00, 0,00, 0,00, 0,00, 0,00, 0,00
75, 49157,70, 43637,22, 0,00, 0,00, 0,00, 0,00, 0,00, 0,00, 0,00, 0,00, 0,00
76, 31842,14, 42637,56, 0,00, 0,00, 0,00, 0,00, 0,00, 0,00, 0,00, 0,00, 0,00
77, 34019,76, 43357,27, 0,00, 0,00, 0,00, 0,00, 0,00, 0,00, 0,00, 0,00, 0,00
78, 51561,20, 44656,68, 0,00, 0,00, 0,00, 0,00, 0,00, 0,00, -0,00, 0,00, 0,01
79, 63664,54, 45115,45, 0,00, 0,00, 0,00, 0,00, 0,00, 0,00, 0,00, 0,00, 0,00
80, 49340,02, 43651,84, 0,00, 0,00, 0,00, 0,00, 0,00, 0,00, 0,00, 0,00, 0,00
81, 31965,27, 42647,37, 0,00, 0,00, 0,00, 0,00, 0,00, 0,00, 0,00, 0,00, 0,00
82, 33872,75, 43349,26, 0,00, 0,00, 0,00, 0,00, 0,00, 0,00, 0,00, 0,00, 0,00
83, 51355,66, 44642,67, 0,00, 0,00, 0,00, 0,00, 0,00, 0,00, 0,00, 0,00, 0,00
84, 63681,14, 45116,57, 0,00, 0,00, 0,00, 0,00, 0,00, 0,00, 0,00, 0,00, 0,00
85, 49533,07, 43664,91, 0,00, 0,00, 0,00, 0,00, 0,00, 0,00, 0,00, 0,00, 0,00
86, 32067,78, 42640,06, 0,00, 0,00, 0,00, 0,00, 0,00, 0,00, 0,00, 0,00, 0,00
87, 33708,96, 43318,30, 0,00, 0,00, 0,00, 0,00, 0,00, 0,00, 0,00, 0,00, 0,00
88, 51152,39, 44620,41, 0,00, 0,00, 0,00, 0,00, 0,00, 0,00, 0,00, 0,00, 0,00
89, 63704,55, 45125,78, 0,00, 0,00, 0,00, 0,00, 0,00, 0,00, 0,00, 0,00, 0,00
90, 49732,03, 43680,09, 0,00, 0,00, 0,00, 0,00, 0,00, 0,00, 0,00, 0,00, 0,00
91, 32210,29, 42657,61, 0,00, 0,00, 0,00, 0,00, 0,00, 0,00, 0,00, 0,00, 0,00
92, 33579,65, 43315,36, 0,00, 0,00, 0,00, 0,00, 0,00, 0,00, 0,00, 0,00, 0,00
93, 50956,37, 44616,52, 0,00, 0,00, 0,00, 0,00, 0,00, 0,00, 0,00, 0,00, 0,00
94, 63697,89, 45138,77, 0,00, 0,00, 0,00, 0,00, 0,00, 0,00, 0,00, 0,00, 0,00
95, 49914,24, 43704,12, 0,00, 0,00, 0,00, 0,00, 0,00, 0,00, 0,00, 0,00, 0,00
96, 32342,41, 42661,84, 0,00, 0,00, 0,00, 0,00, 0,00, 0,00, 0,00, 0,00, 0,00
97, 33446,14, 43309,66, 0,00, 0,00, 0,00, 0,00, 0,00, 0,00, 0,00, 0,00, 0,00
98, 50779,72, 44605,77, 0,00, 0,00, 0,00, 0,00, 0,00, 0,00, 0,00, 0,00, 0,01
99, 63730,77, 45146,32, 0,00, 0,00, 0,00, 0,00, 0,00, 0,00, 0,00, 0,00, 0,00
100, 50122,18, 43713,59, 0,00, 0,00, 0,00, 0,00, 0,00, 0,00, 0,00, 0,00, 0,00
101, 32454,53, 42650,55, 0,00, 0,00, 0,00, 0,00, 0,00, 0,00, 0,00, 0,00, 0,00
102, 33270,26, 43277,09, 0,00, 0,00, 0,00, 0,00, 0,00, 0,00, 0,00, 0,00, 0,00
103, 50558,13, 44578,77, 0,00, 0,00, 0,00, 0,00, 0,00, 0,00, 0,00, 0,00, 0,00
104, 63724,73, 45144,64, 0,00, 0,00, 0,00, 0,00, 0,00, 0,00, 0,00, 0,00, 0,00
105, 50288,20, 43719,99, 0,00, 0,00, 0,00, 0,00, 0,00, 0,00, 0,00, 0,00, 0,00
106, 32584,28, 42652,85, 0,00, 0,00, 0,00, 0,00, 0,00, 0,00, 0,00, 0,00, 0,00
107, 33160,58, 43276,13, 0,00, 0,00, 0,00, 0,00, 0,00, 0,00, 0,00, 0,00, 0,00
108, 50378,64, 44577,07, 0,00, 0,00, 0,00, 0,00, 0,00, 0,00, 0,00, 0,00, 0,01
109, 63735,84, 45159,80, 0,00, 0,00, 0,00, 0,00, 0,00, 0,00, 0,00, 0,00, 0,00
110, 50513,51, 43742,00, 0,00, 0,00, 0,00, 0,00, 0,00, 0,00, 0,00, 0,00, 0,00
111, 32739,29, 42672,47, 0,00, 0,00, 0,00, 0,00, 0,00, 0,00, 0,00, 0,00, 0,00
112, 32999,64, 43263,92, 0,00, 0,00, 0,00, 0,00, 0,00, 0,00, 0,00, 0,00, 0,00
113, 50193,75, 44566,34, 0,00, 0,00, 0,00, 0,00, 0,00, 0,00, 0,00, 0,00, 0,00
114, 63765,41, 45162,21, 0,00, 0,00, 0,00, 0,00, 0,00, 0,00, 0,00, 0,00, 0,00
115, 50716,26, 43752,53, 0,00, 0,00, 0,00, 0,00, 0,00, 0,00, 0,00, 0,00, 0,00
116, 32854,61, 42665,88, 0,00, 0,00, 0,00, 0,00, 0,00, 0,00, 0,00, 0,00, 0,00
117, 32870,12, 43245,55, 0,00, 0,00, 0,00, 0,00, 0,00, 0,00, 0,00, 0,00, 0,00
118, 49998,91, 44550,00, 0,00, 0,00, 0,00, 0,00, 0,00, 0,00, 0,01, 0,00, 0,01
119, 63761,46, 45168,65, 0,00, 0,00, 0,00, 0,00, 0,00, 0,00, 0,00, 0,00, 0,00
120, 50920,58, 43772,61, 0,00, 0,00, 0,00, 0,00, 0,00, 0,00, 0,00, 0,00, 0,00
121, 33002,82, 42660,83, 0,00, 0,00, 0,00, 0,00, 0,00, 0,00, 0,00, 0,00, 0,00
122, 32725,54, 43215,75, 0,00, 0,00, 0,00, 0,00, 0,00, 0,00, 0,00, 0,00, 0,00
123, 49792,60, 44527,87, 0,00, 0,00, 0,00, 0,00, 0,00, 0,00, 0,00, 0,00, 0,00
124, 63710,34, 45161,56, 0,00, 0,00, 0,00, 0,00, 0,00, 0,00, 0,00, 0,00, 0,00
125, 51076,04, 43767,93, 0,00, 0,00, 0,00, 0,00, 0,00, 0,00, 0,00, 0,00, 0,00
126, 33124,55, 42659,44, 0,00, 0,00, 0,00, 0,00, 0,00, 0,00, 0,00, 0,00, 0,00
127, 32596,29, 43202,03, 0,00, 0,00, 0,00, 0,00, 0,00, 0,00, 0,00, 0,00, 0,00
128, 49586,54, 44514,61, 0,00, 0,00, 0,00, 0,00, 0,00, 0,00, 0,00, 0,00, 0,01
129, 63714,00, 45167,35, 0,00, 0,00, 0,00, 0,00, 0,00, 0,00, 0,00, 0,00, 0,00
130, 51307,91, 43788,36, 0,00, 0,00, 0,00, 0,00, 0,00, 0,00, 0,00, 0,00, 0,00
131, 33285,25, 42665,93, 0,00, 0,00, 0,00, 0,00, 0,00, 0,00, 0,00, 0,00, 0,00
132, 32440,90, 43174,02, 0,00, 0,00, 0,00, 0,00, 0,00, 0,00, 0,00, 0,00, 0,00
133, 49378,67, 44482,18, 0,00, 0,00, 0,00, 0,00, 0,00, 0,00, 0,00, 0,00, 0,00
134, 63678,24, 45161,03, 0,00, 0,00, 0,00, 0,00, 0,00, 0,00, 0,00, 0,00, 0,00
135, 51469,41, 43786,80, 0,00, 0,00, 0,00, 0,00, 0,00, 0,00, 0,00, 0,00, 0,00
136, 33414,16, 42656,31, 0,00, 0,00, 0,00, 0,00, 0,00, 0,00, 0,00, 0,00, 0,00
137, 32314,74, 43163,61, 0,00, 0,00, 0,00, 0,00, 0,00, 0,00, 0,00, 0,00, 0,00
138, 49177,39, 44469,15, 0,00, 0,00, 0,00, 0,00, 0,00, 0,00, 0,00, 0,00, 0,00
139, 63646,57, 45162,17, 0,00, 0,00, 0,00, 0,00, 0,00, 0,00, 0,00, 0,00, 0,00
140, 51683,73, 43807,59, 0,00, 0,00, 0,00, 0,00, 0,00, 0,00, 0,00, 0,00, 0,00
141, 33565,93, 42670,48, 0,00, 0,00, 0,00, 0,00, 0,00, 0,00, 0,00, 0,00, 0,00
142, 32182,80, 43149,17, 0,00, 0,00, 0,00, 0,00, 0,00, 0,00, 0,00, 0,00, 0,00
143, 48982,89, 44465,75, 0,00, 0,00, 0,00, 0,00, 0,00, 0,00, 0,00, 0,00, 0,00
144, 63636,91, 45178,89, 0,00, 0,00, 0,00, 0,00, 0,00, 0,00, 0,00, 0,00, 0,00
145, 51887,32, 43829,45, 0,00, 0,00, 0,00, 0,00, 0,00, 0,00, 0,00, 0,00, 0,00
146, 33720,49, 42670,57, 0,00, 0,00, 0,00, 0,00, 0,00, 0,00, 0,00, 0,00, 0,00
147, 32062,88, 43137,66, 0,00, 0,00, 0,00, 0,00, 0,00, 0,00, 0,00, 0,00, 0,00
148, 48802,60, 44445,95, 0,00, 0,00, 0,00, 0,00, 0,00, 0,00, 0,01, 0,00, 0,00
149, 63603,12, 45171,29, 0,00, 0,00, 0,00, 0,00, 0,00, 0,00, 0,00, 0,00, 0,00
150, 52090,63, 43841,16, 0,00, 0,00, 0,00, 0,00, 0,00, 0,00, 0,00, 0,00, 0,00
151, 33880,71, 42677,48, 0,00, 0,00, 0,00, 0,00, 0,00, 0,00, 0,00, 0,00, 0,00
152, 31937,76, 43116,94, 0,00, 0,00, 0,00, 0,00, 0,00, 0,00, 0,00, 0,00, 0,00
153, 48610,30, 44432,99, 0,00, 0,00, 0,00, 0,00, 0,00, 0,00, 0,00, 0,00, 0,00
154, 63571,51, 45180,47, 0,00, 0,00, 0,00, 0,00, 0,00, 0,00, 0,00, 0,00, 0,00
155, 52271,52, 43857,81, 0,00, 0,00, 0,00, 0,00, 0,00, 0,00, 0,00, 0,00, 0,00
156, 34021,61, 42687,02, 0,00, 0,00, 0,00, 0,00, 0,00, 0,00, 0,00, 0,00, 0,00
157, 31811,47, 43115,57, 0,00, 0,00, 0,00, 0,00, 0,00, 0,00, 0,00, 0,00, 0,00
158, 48425,10, 44434,13, 0,00, 0,00, 0,00, 0,00, 0,00, 0,00, 0,01, 0,00, 0,01
159, 63553,18, 45207,45, 0,00, 0,00, 0,00, 0,00, 0,00, 0,00, 0,00, 0,00, 0,00
160, 52487,84, 43893,06, 0,00, 0,00, 0,00, 0,00, 0,00, 0,00, 0,00, 0,00, 0,00
161, 34190,30, 42707,10, 0,00, 0,00, 0,00, 0,00, 0,00, 0,00, 0,00, 0,00, 0,00
162, 31700,61, 43111,75, 0,00, 0,00, 0,00, 0,00, 0,00, 0,00, 0,00, 0,00, 0,00
163, 48219,86, 44421,36, 0,00, 0,00, 0,00, 0,00, 0,00, 0,00, 0,00, 0,00, 0,00
164, 63523,19, 45207,21, 0,00, 0,00, 0,00, 0,00, 0,00, 0,00, 0,00, 0,00, 0,00
165, 52693,77, 43902,04, 0,00, 0,00, 0,00, 0,00, 0,00, 0,00, 0,00, 0,00, 0,00
166, 34358,50, 42711,25, 0,00, 0,00, 0,00, 0,00, 0,00, 0,00, 0,00, 0,00, 0,00
167, 31587,82, 43093,40, 0,00, 0,00, 0,00, 0,00, 0,00, 0,00, 0,01, 0,00, 0,01
168, 48030,32, 44403,66, 0,00, 0,00, 0,00, 0,00, 0,00, 0,00, 0,00, 0,00, 0,00
169, 63455,13, 45205,69, 0,00, 0,00, 0,00, 0,00, 0,00, 0,00, 0,00, 0,00, 0,00
170, 52884,43, 43914,23, 0,00, 0,00, 0,00, 0,00, 0,00, 0,00, 0,00, 0,00, 0,00
171, 34502,55, 42712,13, 0,00, 0,00, 0,00, 0,00, 0,00, 0,00, 0,00, 0,00, 0,00
172, 31446,98, 43079,61, 0,00, 0,00, 0,00, 0,00, 0,00, 0,00, 0,00, 0,00, 0,00
173, 47827,19, 44391,99, 0,00, 0,00, 0,00, 0,00, 0,00, 0,00, 0,00, 0,00, 0,00
174, 63415,65, 45204,59, 0,00, 0,00, 0,00, 0,00, 0,00, 0,00, 0,00, 0,00, 0,00
175, 53085,37, 43935,84, 0,00, 0,00, 0,00, 0,00, 0,00, 0,00, 0,00, 0,00, 0,00
176, 34654,86, 42712,15, 0,00, 0,00, 0,00, 0,00, 0,00, 0,00, 0,00, 0,00, 0,00
177, 31337,10, 43060,99, 0,00, 0,00, 0,00, 0,00, 0,00, 0,00, 0,01, 0,00, 0,01
178, 47636,82, 44382,98, 0,00, 0,00, 0,00, 0,00, 0,00, 0,00, 0,00, 0,00, 0,00
179, 63362,34, 45207,27, 0,00, 0,00, 0,00, 0,00, 0,00, 0,00, 0,00, 0,00, 0,00
180, 53264,77, 43945,03, 0,00, 0,00, 0,00, 0,00, 0,00, 0,00, 0,00, 0,00, 0,00
181, 34820,53, 42726,74, 0,00, 0,00, 0,00, 0,00, 0,00, 0,00, 0,00, 0,00, 0,00
182, 31193,60, 43043,85, 0,00, 0,00, 0,00, 0,00, 0,00, 0,00, 0,00, 0,00, 0,00
183, 47397,41, 44371,74, 0,00, 0,00, 0,00, 0,00, 0,00, 0,00, 0,00, 0,00, 0,00
184, 63320,37, 45217,76, 0,00, 0,00, 0,00, 0,00, 0,00, 0,00, 0,00, 0,00, 0,00
185, 53477,57, 43963,62, 0,00, 0,00, 0,00, 0,00, 0,00, 0,00, 0,00, 0,00, 0,00
186, 34997,04, 42734,37, 0,00, 0,00, 0,00, 0,00, 0,00, 0,00, 0,00, 0,00, 0,00
187, 31116,96, 43037,43, 0,00, 0,00, 0,00, 0,00, 0,00, 0,00, 0,00, 0,00, 0,00
188, 47248,21, 44350,62, 0,00, 0,00, 0,00, 0,00, 0,00, 0,00, 0,00, 0,00, 0,00
189, 63231,36, 45208,39, 0,00, 0,00, 0,00, 0,00, 0,00, 0,00, 0,00, 0,00, 0,00
190, 53673,64, 43976,65, 0,00, 0,00, 0,00, 0,00, 0,00, 0,00, 0,00, 0,00, 0,00
191, 35136,56, 42730,14, 0,00, 0,00, 0,00, 0,00, 0,00, 0,00, 0,00, 0,00, 0,00
192, 30986,87, 43017,00, 0,00, 0,00, 0,00, 0,00, 0,00, 0,00, 0,00, 0,00, 0,00
193, 47062,60, 44340,59, 0,00, 0,00, 0,00, 0,00, 0,00, 0,00, 0,00, 0,00, 0,00
194, 63182,86, 45208,82, 0,00, 0,00, 0,00, 0,00, 0,00, 0,00, 0,00, 0,00, 0,00
195, 53837,37, 43982,93, 0,00, 0,00, 0,00, 0,00, 0,00, 0,00, 0,00, 0,00, 0,00
196, 35297,76, 42739,66, 0,00, 0,00, 0,00, 0,00, 0,00, 0,00, 0,00, 0,00, 0,00
197, 30878,67, 43006,43, 0,00, 0,00, 0,00, 0,00, 0,00, 0,00, 0,01, 0,00, 0,00
198, 46844,18, 44327,57, 0,00, 0,00, 0,00, 0,00, 0,00, 0,00, 0,00, 0,00, 0,00
199, 63116,36, 45219,75, 0,00, 0,00, 0,00, 0,00, 0,00, 0,00, 0,00, 0,00, 0,00
200, 54057,56, 44017,36, 0,00, 0,00, 0,00, 0,00, 0,00, 0,00, 0,00, 0,00, 0,00
201, 35473,18, 42759,51, 0,00, 0,00, 0,00, 0,00, 0,00, 0,00, 0,00, 0,00, 0,00
202, 30784,74, 42996,75, 0,00, 0,00, 0,00, 0,00, 0,00, 0,00, 0,00, 0,00, 0,00
203, 46651,46, 44303,26, 0,00, 0,00, 0,00, 0,00, 0,00, 0,00, 0,00, 0,00, 0,00
204, 63023,56, 45211,45, 0,00, 0,00, 0,00, 0,00, 0,00, 0,00, 0,00, 0,00, 0,00
205, 54219,79, 44030,23, 0,00, 0,00, 0,00, 0,00, 0,00, 0,00, 0,00, 0,00, 0,00
206, 35646,47, 42766,91, 0,00, 0,00, 0,00, 0,00, 0,00, 0,00, 0,00, 0,00, 0,00
207, 30676,83, 42987,66, 0,00, 0,00, 0,00, 0,00, 0,00, 0,00, 0,00, 0,00, 0,00
208, 46468,87, 44301,09, 0,00, 0,00, 0,00, 0,00, 0,00, 0,00, 0,00, 0,00, 0,00
209, 62957,71, 45213,96, 0,00, 0,00, 0,00, 0,00, 0,00, 0,00, 0,00, 0,00, 0,00
210, 54447,15, 44050,97, 0,00, 0,00, 0,00, 0,00, 0,00, 0,00, 0,00, 0,00, 0,00
211, 35826,83, 42772,74, 0,00, 0,00, 0,00, 0,00, 0,00, 0,00, 0,00, 0,00, 0,00
212, 30589,99, 42962,13, 0,00, 0,00, 0,00, 0,00, 0,00, 0,00, 0,00, 0,00, 0,00
213, 46281,83, 44276,90, 0,00, 0,00, 0,00, 0,00, 0,00, 0,00, 0,00, 0,00, 0,00
214, 62888,87, 45210,61, 0,00, 0,00, 0,00, 0,00, 0,00, 0,00, 0,00, 0,00, 0,00
215, 54632,38, 44055,38, 0,00, 0,00, 0,00, 0,00, 0,00, 0,00, 0,00, 0,00, 0,00
216, 35997,66, 42777,64, 0,00, 0,00, 0,00, 0,00, 0,00, 0,00, 0,00, 0,00, 0,00
217, 30512,34, 42968,90, 0,00, 0,00, 0,00, 0,00, 0,00, 0,00, 0,01, 0,00, 0,00
218, 46116,43, 44283,21, 0,00, 0,00, 0,00, 0,00, 0,00, 0,00, 0,00, 0,00, 0,00
219, 62805,96, 45226,03, 0,00, 0,00, 0,00, 0,00, 0,00, 0,00, 0,00, 0,00, 0,00
220, 54838,91, 44093,33, 0,00, 0,00, 0,00, 0,00, 0,00, 0,00, 0,00, 0,00, 0,00
221, 36181,24, 42797,11, 0,00, 0,00, 0,00, 0,00, 0,00, 0,00, 0,00, 0,00, 0,00
222, 30396,54, 42950,39, 0,00, 0,00, 0,00, 0,00, 0,00, 0,00, 0,00, 0,00, 0,00
223, 45901,09, 44258,98, 0,00, 0,00, 0,00, 0,00, 0,00, 0,00, 0,00, 0,00, 0,00
224, 62729,18, 45219,19, 0,00, 0,00, 0,00, 0,00, 0,00, 0,00, 0,00, 0,00, 0,00
225, 55018,46, 44095,25, 0,00, 0,00, 0,00, 0,00, 0,00, 0,00, 0,00, 0,00, 0,00
226, 36339,64, 42794,71, 0,00, 0,00, 0,00, 0,00, 0,00, 0,00, 0,00, 0,00, 0,00
227, 30322,40, 42940,11, 0,00, 0,00, 0,00, 0,00, 0,00, 0,00, 0,01, 0,00, 0,00
228, 45717,43, 44240,40, 0,00, 0,00, 0,00, 0,00, 0,00, 0,00, 0,00, 0,00, 0,00
229, 62632,34, 45220,02, 0,00, 0,00, 0,00, 0,00, 0,00, 0,00, 0,00, 0,00, 0,00
230, 55194,30, 44115,70, 0,00, 0,00, 0,00, 0,00, 0,00, 0,00, 0,00, 0,00, 0,00
231, 36494,00, 42803,79, 0,00, 0,00, 0,00, 0,00, 0,00, 0,00, 0,00, 0,00, 0,00
232, 30230,20, 42916,87, 0,00, 0,00, 0,00, 0,00, 0,00, 0,00, 0,00, 0,00, 0,00
233, 45543,42, 44226,43, 0,00, 0,00, 0,00, 0,00, 0,00, 0,00, 0,00, 0,00, 0,00
234, 62532,40, 45211,68, 0,00, 0,00, 0,00, 0,00, 0,00, 0,00, 0,00, 0,00, 0,00
235, 55370,88, 44132,27, 0,00, 0,00, 0,00, 0,00, 0,00, 0,00, 0,00, 0,00, 0,00
236, 36671,32, 42814,70, 0,00, 0,00, 0,00, 0,00, 0,00, 0,00, 0,00, 0,00, 0,00
237, 30149,17, 42917,83, 0,00, 0,00, 0,00, 0,00, 0,00, 0,00, 0,01, 0,01, 0,00
238, 45354,21, 44225,29, 0,00, 0,00, 0,00, 0,00, 0,00, 0,00, 0,00, 0,00, 0,00
239, 62457,28, 45224,53, 0,00, 0,00, 0,00, 0,00, 0,00, 0,00, 0,00, 0,00, 0,00
240, 55568,25, 44157,43, 0,00, 0,00, 0,00, 0,00, 0,00, 0,00, 0,00, 0,00, 0,00
241, 36851,12, 42829,70, 0,00, 0,00, 0,00, 0,00, 0,00, 0,00, 0,00, 0,00, 0,00
242, 30052,34, 42899,03, 0,00, 0,00, 0,00, 0,00, 0,00, 0,00, 0,00, 0,00, 0,00
243, 45116,12, 44197,00, 0,00, 0,00, 0,00, 0,00, 0,00, 0,00, 0,00, 0,00, 0,00
244, 62352,27, 45216,04, 0,00, 0,00, 0,00, 0,00, 0,00, 0,00, 0,00, 0,00, 0,00
245, 55765,05, 44174,80, 0,00, 0,00, 0,00, 0,00, 0,00, 0,00, 0,00, 0,00, 0,00
246, 37014,44, 42835,24, 0,00, 0,00, 0,00, 0,00, 0,00, 0,00, 0,00, 0,00, 0,00
247, 29990,63, 42891,92, 0,00, 0,00, 0,00, 0,00, 0,00, 0,00, 0,00, 0,01, 0,00
248, 44971,17, 44195,48, 0,00, 0,00, 0,00, 0,00, 0,00, 0,00, 0,00, 0,00, 0,00
249, 62246,16, 45222,18, 0,00, 0,00, 0,00, 0,00, 0,00, 0,00, 0,00, 0,00, 0,00
250, 55917,83, 44189,80, 0,00, 0,00, 0,00, 0,00, 0,00, 0,00, 0,00, 0,00, 0,00
251, 37177,54, 42841,23, 0,00, 0,00, 0,00, 0,00, 0,00, 0,00, 0,00, 0,00, 0,00
252, 29916,07, 42884,43, 0,00, 0,00, 0,00, 0,00, 0,00, 0,00, 0,00, 0,00, 0,00
253, 44815,78, 44193,29, 0,00, 0,00, 0,00, 0,00, 0,00, 0,00, 0,00, 0,00, 0,00
254, 62163,95, 45213,89, 0,00, 0,00, 0,00, 0,00, 0,00, 0,00, 0,00, 0,00, 0,00
255, 56124,40, 44221,11, 0,00, 0,00, 0,00, 0,00, 0,00, 0,00, 0,00, 0,00, 0,00
0, 37369,19, 42868,88, 0,00, 0,00, 0,00, 0,00, 0,00, 0,00, 0,00, 0,00, 0,00
1, 29851,11, 42868,66, 0,00, 0,00, 0,00, 0,00, 0,00, 0,00, 0,00, 0,00, 0,00
2, 44628,79, 44170,55, 0,00, 0,00, 0,00, 0,00, 0,00, 0,00, 0,00, 0,00, 0,00
3, 62035,39, 45199,54, 0,00, 0,00, 0,00, 0,00, 0,00, 0,00, 0,00, 0,00, 0,00
4, 56285,47, 44213,98, 0,00, 0,00, 0,00, 0,00, 0,00, 0,00, 0,00, 0,00, 0,00
5, 37550,44, 42868,48, 0,00, 0,00, 0,00, 0,00, 0,00, 0,00, 0,00, 0,00, 0,00
6, 29784,99, 42858,93, 0,00, 0,00, 0,00, 0,00, 0,00, 0,00, 0,00, 0,00, 0,00
7, 44434,91, 44161,99, 0,00, 0,00, 0,00, 0,00, 0,00, 0,00, 0,00, 0,00, 0,00
8, 61931,43, 45206,74, 0,00, 0,00, 0,00, 0,00, 0,00, 0,00, 0,00, 0,00, 0,00
9, 56460,13, 44228,56, 0,00, 0,00, 0,00, 0,00, 0,00, 0,00, 0,00, 0,00, 0,00
10, 37711,28, 42873,91, 0,00, 0,00, 0,00, 0,00, 0,00, 0,00, 0,01, 0,01, 0,00
11, 29710,90, 42853,01, 0,00, 0,00, 0,00, 0,00, 0,00, 0,00, 0,00, 0,00, 0,00
12, 44248,65, 44144,11, 0,00, 0,00, 0,00, 0,00, 0,00, 0,00, 0,00, 0,00, 0,00
13, 61808,09, 45196,88, 0,00, 0,00, 0,00, 0,00, 0,00, 0,00, 0,00, 0,00, 0,00
14, 56609,43, 44247,85, 0,00, 0,00, 0,00, 0,00, 0,00, 0,00, 0,00, 0,00, 0,00
15, 37869,98, 42885,53, 0,00, 0,00, 0,00, 0,00, 0,00, 0,00, 0,00, 0,00, 0,00
16, 29669,50, 42850,57, 0,00, 0,00, 0,00, 0,00, 0,00, 0,00, 0,00, 0,00, 0,00
17, 44099,92, 44147,29, 0,00, 0,00, 0,00, 0,00, 0,00, 0,00, 0,00, 0,00, 0,00
18, 61726,55, 45208,23, 0,00, 0,00, 0,00, 0,00, 0,00, 0,00, 0,00, 0,00, 0,00
19, 56822,67, 44278,87, 0,00, 0,00, 0,00, 0,00, 0,00, 0,00, 0,00, 0,00, 0,00
20, 38078,61, 42902,05, 0,00, 0,00, 0,00, 0,00, 0,00, 0,00, 0,01, 0,01, 0,00
21, 29606,29, 42832,09, 0,00, 0,00, 0,00, 0,00, 0,00, 0,00, 0,00, 0,00, 0,00
22, 43898,40, 44116,93, 0,00, 0,00, 0,00, 0,00, 0,00, 0,00, 0,00, 0,00, 0,00
23, 61578,07, 45177,52, 0,00, 0,00, 0,00, 0,00, 0,00, 0,00, 0,00, 0,00, 0,00
24, 56975,18, 44270,18, 0,00, 0,00, 0,00, 0,00, 0,00, 0,00, 0,00, 0,00, 0,00
25, 38231,63, 42898,63, 0,00, 0,00, 0,00, 0,00, 0,00, 0,00, 0,00, 0,00, 0,00
26, 29537,25, 42823,39, 0,00, 0,00, 0,00, 0,00, 0,00, 0,00, 0,00, 0,00, 0,00
27, 43758,95, 44113,98, 0,00, 0,00, 0,00, 0,00, 0,00, 0,00, 0,00, 0,00, 0,00
28, 61580,04, 45207,47, 0,00, 0,00, 0,00, 0,00, 0,00, 0,00, 0,00, 0,00, 0,00
29, 57198,49, 44309,36, 0,00, 0,00, 0,00, 0,00, 0,00, 0,00, 0,00, 0,00, 0,00
30, 38375,26, 42922,34, 0,00, 0,00, 0,00, 0,00, 0,00, 0,00, 0,00, 0,01, 0,01
31, 29433,18, 42822,63, 0,00, 0,00, 0,00, 0,00, 0,00, 0,00, 0,00, 0,00, 0,00
32, 43530,13, 44098,61, 0,00, 0,00, 0,00, 0,00, 0,00, 0,00, 0,00, 0,00, 0,00
33, 61428,71, 45185,41, 0,00, 0,00, 0,00, 0,00, 0,00, 0,00, 0,00, 0,00, 0,00
34, 57373,02, 44318,79, 0,00, 0,00, 0,00, 0,00, 0,00, 0,00, 0,00, 0,00, 0,00
35, 38547,79, 42926,43, 0,00, 0,00, 0,00, 0,00, 0,00, 0,00, 0,00, 0,00, 0,00
36, 29366,50, 42800,37, 0,00, 0,00, 0,00, 0,00, 0,00, 0,00, 0,00, 0,00, 0,00
37, 43361,36, 44087,23, 0,00, 0,00, 0,00, 0,00, 0,00, 0,00, 0,00, 0,00, 0,00
38, 61302,12, 45191,45, 0,00, 0,00, 0,00, 0,00, 0,00, 0,00, 0,00, 0,00, 0,00
39, 57556,14, 44342,30, 0,00, 0,00, 0,00, 0,00, 0,00, 0,00, 0,00, 0,00, 0,00
40, 38738,88, 42937,12, 0,00, 0,00, 0,00, 0,00, 0,00, 0,00, -0,00, 0,01, 0,00
41, 29315,50, 42786,85, 0,00, 0,00, 0,00, 0,00, 0,00, 0,00, 0,00, 0,00, 0,00
42, 43160,46, 44064,47, 0,00, 0,00, 0,00, 0,00, 0,00, 0,00, 0,00, 0,00, 0,00
43, 61158,30, 45180,54, 0,00, 0,00, 0,00, 0,00, 0,00, 0,00, 0,00, 0,00, 0,00
44, 57723,40, 44347,00, 0,00, 0,00, 0,00, 0,00, 0,00, 0,00, 0,00, 0,00, 0,00
45, 38922,75, 42940,63, 0,00, 0,00, 0,00, 0,00, 0,00, 0,00, 0,00, 0,00, 0,00
46, 29273,30, 42774,04, 0,00, 0,00, 0,00, 0,00, 0,00, 0,00, 0,00, 0,00, 0,00
47, 42976,86, 44053,97, 0,00, 0,00, 0,00, 0,00, 0,00, 0,00, 0,00, 0,00, 0,00
48, 61025,42, 45174,50, 0,00, 0,00, 0,00, 0,00, 0,00, 0,00, 0,00, 0,00, 0,00
49, 57894,79, 44360,52, 0,00, 0,00, 0,00, 0,00, 0,00, 0,00, 0,00, 0,00, 0,00
50, 39097,91, 42948,85, 0,00, 0,00, 0,00, 0,00, 0,00, 0,00, 0,00, 0,01, 0,00
51, 29232,71, 42778,45, 0,00, 0,00, 0,00, 0,00, 0,00, 0,00, 0,00, 0,00, 0,00
52, 42800,93, 44050,73, 0,00, 0,00, 0,00, 0,00, 0,00, 0,00, 0,00, 0,00, 0,00
53, 60880,29, 45164,16, 0,00, 0,00, 0,00, 0,00, 0,00, 0,00, 0,00, 0,00, 0,00
54, 58073,65, 44385,11, 0,00, 0,00, 0,00, 0,00, 0,00, 0,00, 0,00, 0,00, 0,00
55, 39320,74, 42974,63, 0,00, 0,00, 0,00, 0,00, 0,00, 0,00, 0,00, 0,00, 0,00
56, 29225,38, 42774,11, 0,00, 0,00, 0,00, 0,00, 0,00, 0,00, 0,00, 0,00, 0,00
57, 42596,52, 44030,39, 0,00, 0,00, 0,00, 0,00, 0,00, 0,00, 0,00, 0,00, 0,00
58, 60738,20, 45159,02, 0,00, 0,00, 0,00, 0,00, 0,00, 0,00, 0,00, 0,00, 0,00
59, 58253,02, 44401,65, 0,00, 0,00, 0,00, 0,00, 0,00, 0,00, 0,00, 0,00, 0,00
60, 39499,51, 42979,81, 0,00, 0,00, 0,00, 0,00, 0,00, 0,00, 0,00, 0,01, 0,00
61, 29186,66, 42757,34, 0,00, 0,00, 0,00, 0,00, 0,00, 0,00, 0,00, 0,00, 0,00
62, 42428,88, 44014,34, 0,00, 0,00, 0,00, 0,00, 0,00, 0,00, 0,00, 0,00, 0,00
63, 60597,59, 45152,45, 0,00, 0,00, 0,00, 0,00, 0,00, 0,00, 0,00, 0,00, 0,00
64, 58441,56, 44426,75, 0,00, 0,00, 0,00, 0,00, 0,00, 0,00, 0,00, 0,00, 0,00
65, 39716,72, 42994,16, 0,00, 0,00, 0,00, 0,00, 0,00, 0,00, 0,00, 0,00, 0,00
66, 29147,43, 42743,89, 0,00, 0,00, 0,00, 0,00, 0,00, 0,00, 0,00, 0,00, 0,00
67, 42241,53, 44004,26, 0,00, 0,00, 0,00, 0,00, 0,00, 0,00, 0,00, 0,00, 0,00
68, 60449,80, 45146,03, 0,00, 0,00, 0,00, 0,00, 0,00, 0,00, 0,00, 0,00, 0,00
69, 58585,02, 44434,55, 0,00, 0,00, 0,00, 0,00, 0,00, 0,00, 0,00, 0,00, 0,00
70, 39894,58, 43006,83, 0,00, 0,00, 0,00, 0,00, 0,00, 0,00, 0,00, 0,00, 0,01
71, 29143,63, 42740,82, 0,00, 0,00, 0,00, 0,00, 0,00, 0,00, 0,00, 0,00, 0,00
72, 42064,66, 43989,42, 0,00, 0,00, 0,00, 0,00, 0,00, 0,00, 0,00, 0,00, 0,00
73, 60306,52, 45143,39, 0,00, 0,00, 0,00, 0,00, 0,00, 0,00, 0,00, 0,00, 0,00
74, 58768,95, 44454,55, 0,00, 0,00, 0,00, 0,00, 0,00, 0,00, 0,00, 0,00, 0,00
75, 40092,99, 43013,72, 0,00, 0,00, 0,00, 0,00, 0,00, 0,00, 0,00, 0,00, 0,00
76, 29117,42, 42725,49, 0,00, 0,00, 0,00, 0,00, 0,00, 0,00, 0,00, 0,00, 0,00
77, 41869,04, 43974,29, 0,00, 0,00, 0,00, 0,00, 0,00, 0,00, 0,00, 0,00, 0,00
78, 60123,42, 45121,73, 0,00, 0,00, 0,00, 0,00, 0,00, 0,00, 0,00, 0,00, 0,00
79, 58908,33, 44459,43, 0,00, 0,00, 0,00, 0,00, 0,00, 0,00, 0,00, 0,00, 0,00
80, 40273,64, 43018,93, 0,00, 0,00, 0,00, 0,00, 0,00, 0,00, 0,00, 0,01, 0,00
81, 29080,94, 42711,34, 0,00, 0,00, 0,00, 0,00, 0,00, 0,00, 0,00, 0,00, 0,00
82, 41660,32, 43947,20, 0,00, 0,00, 0,00, 0,00, 0,00, 0,00, 0,00, 0,00, 0,00
83, 59963,00, 45111,43, 0,00, 0,00, 0,00, 0,00, 0,00, 0,00, 0,00, 0,00, 0,00
84, 59054,18, 44466,96, 0,00, 0,00, 0,00, 0,00, 0,00, 0,00, 0,00, 0,00, 0,00
85, 40432,05, 43019,17, 0,00, 0,00, 0,00, 0,00, 0,00, 0,00, 0,00, 0,00, 0,00
86, 29089,03, 42702,07, 0,00, 0,00, 0,00, 0,00, 0,00, 0,00, 0,00, 0,00, 0,00
87, 41530,46, 43950,39, 0,00, 0,00, 0,00, 0,00, 0,00, 0,00, 0,00, 0,00, 0,00
88, 59865,26, 45118,54, 0,00, 0,00, 0,00, 0,00, 0,00, 0,00, 0,00, 0,00, 0,00
89, 59216,79, 44486,14, 0,00, 0,00, 0,00, 0,00, 0,00, 0,00, 0,00, 0,00, 0,00
90, 40616,00, 43034,95, 0,00, 0,00, 0,00, 0,00, 0,00, 0,00, 0,00, 0,01, 0,00
91, 29088,76, 42706,00, 0,00, 0,00, 0,00, 0,00, 0,00, 0,00, 0,00, 0,00, 0,00
92, 41352,71, 43933,76, 0,00, 0,00, 0,00, 0,00, 0,00, 0,00, 0,00, 0,00, 0,00
93, 59851,89, 45122,65, 0,00, 0,00, 0,00, 0,00, 0,00, 0,00, 0,00, 0,00, 0,00
94, 59525,80, 44518,04, 0,00, 0,00, 0,00, 0,00, 0,00, 0,00, 0,00, 0,00, 0,00
95, 40708,54, 43046,64, 0,00, 0,00, 0,00, 0,00, 0,00, 0,00, 0,00, 0,00, 0,00
96, 28959,05, 42699,30, 0,00, 0,00, 0,00, 0,00, 0,00, 0,00, 0,00, 0,00, 0,00
97, 41151,41, 43934,68, 0,00, 0,00, 0,00, 0,00, 0,00, 0,00, 0,00, 0,00, 0,00
98, 59678,38, 45120,88, 0,00, 0,00, 0,00, 0,00, 0,00, 0,00, 0,00, 0,00, 0,00
99, 59671,29, 44535,16, 0,00, 0,00, 0,00, 0,00, 0,00, 0,00, 0,00, 0,01, 0,00
100, 40904,47, 43055,70, 0,00, 0,00, 0,00, 0,00, 0,00, 0,00, 0,00, 0,00, 0,00
101, 28949,60, 42678,02, 0,00, 0,00, 0,00, 0,00, 0,00, 0,00, 0,00, 0,00, 0,00
102, 40950,23, 43901,02, 0,00, 0,00, 0,00, 0,00, 0,00, 0,00, 0,00, 0,00, 0,00
103, 59495,89, 45095,29, 0,00, 0,00, 0,00, 0,00, 0,00, 0,00, 0,00, 0,00, 0,00
104, 59830,79, 44548,21, 0,00, 0,00, 0,00, 0,00, 0,00, 0,00, 0,00, 0,00, 0,00
105, 41093,77, 43070,00, 0,00, 0,00, 0,00, 0,00, 0,00, 0,00, 0,00, 0,00, 0,00
106, 28944,73, 42673,17, 0,00, 0,00, 0,00, 0,00, 0,00, 0,00, 0,00, 0,00, 0,00
107, 40751,41, 43887,47, 0,00, 0,00, 0,00, 0,00, 0,00, 0,00, 0,00, 0,00, 0,00
108, 59338,65, 45094,15, 0,00, 0,00, 0,00, 0,00, 0,00, 0,00, 0,00, 0,00, 0,00
109, 60004,80, 44568,28, 0,00, 0,00, 0,00, 0,00, 0,00, 0,00, 0,00, 0,01, 0,00
110, 41292,70, 43077,75, 0,00, 0,00, 0,00, 0,00, 0,00, 0,00, 0,00, 0,00, 0,00
111, 28951,34, 42660,23, 0,00, 0,00, 0,00, 0,00, 0,00, 0,00, 0,00, 0,00, 0,00
112, 40576,66, 43870,64, 0,00, 0,00, 0,00, 0,00, 0,00, 0,00, 0,00, 0,00, 0,00
113, 59155,88, 45082,21, 0,00, 0,00, 0,00, 0,00, 0,00, 0,00, 0,00, 0,00, 0,00
114, 60138,30, 44575,37, 0,00, 0,00, 0,00, 0,00, 0,00, 0,00, 0,00, 0,00, 0,00
115, 41564,95, 43093,91, 0,00, 0,00, 0,00, 0,00, 0,00, 0,00, 0,00, 0,00, 0,00
116, 29051,66, 42670,69, 0,00, 0,00, 0,00, 0,00, 0,00, 0,00, 0,00, 0,00, 0,00
117, 40416,31, 43871,06, 0,00, 0,00, 0,00, 0,00, 0,00, 0,00, 0,00, 0,00, 0,00
118, 58856,66, 45072,22, 0,00, 0,00, 0,00, 0,00, 0,00, 0,00, 0,00, 0,00, 0,00
119, 60140,00, 44595,21, 0,00, 0,00, 0,00, 0,00, 0,00, 0,00, 0,00, 0,00, 0,00
120, 41791,84, 43116,43, 0,00, 0,00, 0,00, 0,00, 0,00, 0,00, 0,00, 0,00, 0,00
121, 29093,12, 42660,85, 0,00, 0,00, 0,00, 0,00, 0,00, 0,00, 0,00, 0,00, 0,00
122, 40217,63, 43847,50, 0,00, 0,00, 0,00, 0,00, 0,00, 0,00, 0,00, 0,00, 0,00
123, 58679,94, 45053,36, 0,00, 0,00, 0,00, 0,00, 0,00, 0,00, 0,00, 0,00, 0,00
124, 60309,39, 44609,45, 0,00, 0,00, 0,00, 0,00, 0,00, 0,00, 0,00, 0,00, 0,00
125, 41983,95, 43132,92, 0,00, 0,00, 0,00, 0,00, 0,00, 0,00, 0,00, 0,00, 0,00
126, 29097,70, 42663,76, 0,00, 0,00, 0,00, 0,00, 0,00, 0,00, 0,00, 0,00, 0,00
127, 40052,74, 43840,17, 0,00, 0,00, 0,00, 0,00, 0,00, 0,00, 0,00, 0,00, 0,00
128, 58532,78, 45060,27, 0,00, 0,00, 0,00, 0,00, 0,00, 0,00, 0,00, 0,00, 0,00
129, 60452,41, 44632,77, 0,00, 0,00, 0,00, 0,00, 0,00, 0,00, 0,01, 0,00, 0,00
130, 42154,85, 43136,77, 0,00, 0,00, 0,00, 0,00, 0,00, 0,00, 0,00, 0,00, 0,00
131, 29111,09, 42655,89, 0,00, 0,00, 0,00, 0,00, 0,00, 0,00, 0,00, 0,00, 0,00
132, 39861,34, 43823,90, 0,00, 0,00, 0,00, 0,00, 0,00, 0,00, 0,00, 0,00, 0,00
133, 58297,04, 45032,26, 0,00, 0,00, 0,00, 0,00, 0,00, 0,00, 0,00, 0,00, 0,00
134, 60616,39, 44648,03, 0,00, 0,00, 0,00, 0,00, 0,00, 0,00, 0,00, 0,00, 0,00
135, 42419,34, 43156,77, 0,00, 0,00, 0,00, 0,00, 0,00, 0,00, 0,00, 0,00, 0,00
136, 29117,30, 42641,63, 0,00, 0,00, 0,00, 0,00, 0,00, 0,00, 0,00, 0,00, 0,00
137, 39666,61, 43808,88, 0,00, 0,00, 0,00, 0,00, 0,00, 0,00, 0,00, 0,00, 0,00
138, 58135,21, 45040,69, 0,00, 0,00, 0,00, 0,00, 0,00, 0,00, 0,00, 0,00, 0,00
139, 60739,30, 44665,18, 0,00, 0,00, 0,00, 0,00, 0,00, 0,00, 0,01, 0,01, 0,00
140, 42600,50, 43170,52, 0,00, 0,00, 0,00, 0,00, 0,00, 0,00, 0,00, 0,00, 0,00
141, 29144,64, 42647,53, 0,00, 0,00, 0,00, 0,00, 0,00, 0,00, 0,00, 0,00, 0,00
142, 39473,29, 43797,59, 0,00, 0,00, 0,00, 0,00, 0,00, 0,00, 0,00, 0,00, 0,00
143, 57939,41, 45021,06, 0,00, 0,00, 0,00, 0,00, 0,00, 0,00, 0,00, 0,00, 0,00
144, 60871,38, 44675,19, 0,00, 0,00, 0,00, 0,00, 0,00, 0,00, 0,00, 0,00, 0,00
145, 42793,35, 43176,10, 0,00, 0,00, 0,00, 0,00, 0,00, 0,00, 0,00, 0,00, 0,00
146, 29153,58, 42630,65, 0,00, 0,00, 0,00, 0,00, 0,00, 0,00, 0,00, 0,00, 0,00
147, 39282,32, 43775,73, 0,00, 0,00, 0,00, 0,00, 0,00, 0,00, 0,00, 0,00, 0,00
148, 57760,62, 45010,18, 0,00, 0,00, 0,00, 0,00, 0,00, 0,00, 0,00, 0,00, 0,00
149, 61010,78, 44693,23, 0,00, 0,00, 0,00, 0,00, 0,00, 0,00, 0,01, 0,00, 0,00
150, 42975,03, 43180,37, 0,00, 0,00, 0,00, 0,00, 0,00, 0,00, 0,00, 0,00, 0,00
151, 29178,73, 42626,23, 0,00, 0,00, 0,00, 0,00, 0,00, 0,00, 0,00, 0,00, 0,00
152, 39099,93, 43766,86, 0,00, 0,00, 0,00, 0,00, 0,00, 0,00, 0,00, 0,00, 0,00
153, 57574,40, 44995,34, 0,00, 0,00, 0,00, 0,00, 0,00, 0,00, 0,00, 0,00, 0,00
154, 61138,93, 44702,48, 0,00, 0,00, 0,00, 0,00, 0,00, 0,00, 0,00, 0,00, 0,00
155, 43160,30, 43202,37, 0,00, 0,00, 0,00, 0,00, 0,00, 0,00, 0,00, 0,00, 0,00
156, 29215,54, 42625,65, 0,00, 0,00, 0,00, 0,00, 0,00, 0,00, 0,00, 0,00, 0,00
157, 38917,25, 43739,30, 0,00, 0,00, 0,00, 0,00, 0,00, 0,00, 0,00, 0,00, 0,00
158, 57376,68, 44969,72, 0,00, 0,00, 0,00, 0,00, 0,00, 0,00, 0,00, 0,00, 0,00
159, 61258,24, 44705,01, 0,00, 0,00, 0,00, 0,00, 0,00, 0,00, 0,01, 0,01, -0,00
160, 43342,33, 43195,04, 0,00, 0,00, 0,00, 0,00, 0,00, 0,00, 0,00, 0,00, 0,00
161, 29238,18, 42592,79, 0,00, 0,00, 0,00, 0,00, 0,00, 0,00, 0,00, 0,00, 0,00
162, 38717,78, 43709,41, 0,00, 0,00, 0,00, 0,00, 0,00, 0,00, 0,00, 0,00, 0,00
163, 57180,07, 44955,01, 0,00, 0,00, 0,00, 0,00, 0,00, 0,00, 0,00, 0,00, 0,00
164, 61392,04, 44718,33, 0,00, 0,00, 0,00, 0,00, 0,00, 0,00, 0,00, 0,00, 0,00
165, 43535,14, 43198,23, 0,00, 0,00, 0,00, 0,00, 0,00, 0,00, 0,00, 0,00, 0,00
166, 29268,00, 42588,88, 0,00, 0,00, 0,00, 0,00, 0,00, 0,00, 0,00, 0,00, 0,00
167, 38537,89, 43695,60, 0,00, 0,00, 0,00, 0,00, 0,00, 0,00, 0,00, 0,00, 0,00
168, 56992,45, 44940,44, 0,00, 0,00, 0,00, 0,00, 0,00, 0,00, 0,00, 0,00, 0,00
169, 61506,88, 44734,20, 0,00, 0,00, 0,00, 0,00, 0,00, 0,00, 0,00, 0,00, 0,00
170, 43729,09, 43226,84, 0,00, 0,00, 0,00, 0,00, 0,00, 0,00, 0,00, 0,00, 0,00
171, 29318,18, 42600,16, 0,00, 0,00, 0,00, 0,00, 0,00, 0,00, 0,00, 0,00, 0,00
172, 38366,28, 43690,73, 0,00, 0,00, 0,00, 0,00, 0,00, 0,00, 0,00, 0,00, 0,00
173, 56820,70, 44937,93, 0,00, 0,00, 0,00, 0,00, 0,00, 0,00, 0,00, 0,00, 0,00
174, 61647,11, 44746,74, 0,00, 0,00, 0,00, 0,00, 0,00, 0,00, 0,00, 0,00, 0,00
175, 43918,72, 43225,39, 0,00, 0,00, 0,00, 0,00, 0,00, 0,00, 0,00, 0,00, 0,00
176, 29357,63, 42583,52, 0,00, 0,00, 0,00, 0,00, 0,00, 0,00, 0,00, 0,00, 0,00
177, 38176,44, 43666,59, 0,00, 0,00, 0,00, 0,00, 0,00, 0,00, 0,00, 0,00, 0,00
178, 56626,40, 44921,48, 0,00, 0,00, 0,00, 0,00, 0,00, 0,00, 0,00, 0,00, 0,00
179, 61789,52, 44766,52, 0,00, 0,00, 0,00, 0,00, 0,00, 0,00, 0,01, 0,00, 0,00
180, 44127,98, 43239,76, 0,00, 0,00, 0,00, 0,00, 0,00, 0,00, 0,00, 0,00, 0,00
181, 29410,74, 42580,14, 0,00, 0,00, 0,00, 0,00, 0,00, 0,00, 0,00, 0,00, 0,00
182, 38011,02, 43654,05, 0,00, 0,00, 0,00, 0,00, 0,00, 0,00, 0,00, 0,00, 0,00
183, 56445,21, 44905,91, 0,00, 0,00, 0,00, 0,00, 0,00, 0,00, 0,00, 0,00, 0,00
184, 61876,42, 44761,78, 0,00, 0,00, 0,00, 0,00, 0,00, 0,00, 0,00, 0,00, 0,00
185, 44302,65, 43237,44, 0,00, 0,00, 0,00, 0,00, 0,00, 0,00, 0,00, 0,00, 0,00
186, 29446,99, 42563,40, 0,00, 0,00, 0,00, 0,00, 0,00, 0,00, 0,00, 0,00, 0,00
187, 37838,06, 43643,59, 0,00, 0,00, 0,00, 0,00, 0,00, 0,00, 0,00, 0,00, 0,00
188, 56267,34, 44906,11, 0,00, 0,00, 0,00, 0,00, 0,00, 0,00, 0,00, 0,00, 0,00
189, 61993,63, 44780,78, 0,00, 0,00, 0,00, 0,00, 0,00, 0,00, 0,01, 0,00, 0,01
190, 44511,35, 43265,49, 0,00, 0,00, 0,00, 0,00, 0,00, 0,00, 0,00, 0,00, 0,00
191, 29519,19, 42578,71, 0,00, 0,00, 0,00, 0,00, 0,00, 0,00, 0,00, 0,00, 0,00
192, 37649,03, 43630,52, 0,00, 0,00, 0,00, 0,00, 0,00, 0,00, 0,00, 0,00, 0,00
193, 56086,02, 44896,00, 0,00, 0,00, 0,00, 0,00, 0,00, 0,00, 0,00, 0,00, 0,00
194, 62130,05, 44802,13, 0,00, 0,00, 0,00, 0,00, 0,00, 0,00, 0,00, 0,00, 0,00
195, 44713,57, 43277,76, 0,00, 0,00, 0,00, 0,00, 0,00, 0,00, 0,00, 0,00, 0,00
196, 29588,70, 42576,38, 0,00, 0,00, 0,00, 0,00, 0,00, 0,00, 0,00, 0,00, 0,00
197, 37466,75, 43611,40, 0,00, 0,00, 0,00, 0,00, 0,00, 0,00, 0,00, 0,00, 0,00
198, 55882,80, 44878,14, 0,00, 0,00, 0,00, 0,00, 0,00, 0,00, 0,01, 0,00, 0,00
199, 62254,95, 44823,52, 0,00, 0,00, 0,00, 0,00, 0,00, 0,00, 0,00, 0,00, 0,00
200, 44926,65, 43298,39, 0,00, 0,00, 0,00, 0,00, 0,00, 0,00, 0,00, 0,00, 0,00
201, 29643,11, 42572,43, 0,00, 0,00, 0,00, 0,00, 0,00, 0,00, 0,00, 0,00, 0,00
202, 37310,18, 43607,09, 0,00, 0,00, 0,00, 0,00, 0,00, 0,00, 0,00, 0,00, 0,00
203, 55699,63, 44876,96, 0,00, 0,00, 0,00, 0,00, 0,00, 0,00, 0,00, 0,00, 0,00
204, 62353,48, 44838,67, 0,00, 0,00, 0,00, 0,00, 0,00, 0,00, 0,00, 0,00, 0,00
205, 45127,10, 43314,01, 0,00, 0,00, 0,00, 0,00, 0,00, 0,00, 0,00, 0,00, 0,00
206, 29714,59, 42577,16, 0,00, 0,00, 0,00, 0,00, 0,00, 0,00, 0,00, 0,00, 0,00
207, 37122,83, 43588,54, 0,00, 0,00, 0,00, 0,00, 0,00, 0,00, 0,00, 0,00, 0,00
208, 55492,32, 44856,95, 0,00, 0,00, 0,00, 0,00, 0,00, 0,00, 0,00, 0,01, 0,01
209, 62460,85, 44848,08, 0,00, 0,00, 0,00, 0,00, 0,00, 0,00, 0,00, 0,00, 0,00
210, 45314,16, 43318,19, 0,00, 0,00, 0,00, 0,00, 0,00, 0,00, 0,00, 0,00, 0,00
211, 29774,40, 42573,79, 0,00, 0,00, 0,00, 0,00, 0,00, 0,00, 0,00, 0,00, 0,00
212, 36959,19, 43580,45, 0,00, 0,00, 0,00, 0,00, 0,00, 0,00, 0,00, 0,00, 0,00
213, 55312,39, 44854,14, 0,00, 0,00, 0,00, 0,00, 0,00, 0,00, 0,00, 0,00, 0,00
214, 62556,25, 44868,42, 0,00, 0,00, 0,00, 0,00, 0,00, 0,00, 0,00, 0,00, 0,00
215, 45500,64, 43335,49, 0,00, 0,00, 0,00, 0,00, 0,00, 0,00, 0,00, 0,00, 0,00
216, 29838,17, 42569,63, 0,00, 0,00, 0,00, 0,00, 0,00, 0,00, 0,00, 0,00, 0,00
217, 36779,62, 43568,11, 0,00, 0,00, 0,00, 0,00, 0,00, 0,00, 0,00, 0,00, 0,00
218, 55105,27, 44844,15, 0,00, 0,00, 0,00, 0,00, 0,00, 0,00, 0,00, 0,00, 0,01
219, 62629,27, 44879,62, 0,00, 0,00, 0,00, 0,00, 0,00, 0,00, 0,00, 0,00, 0,00
220, 45703,68, 43355,63, 0,00, 0,00, 0,00, 0,00, 0,00, 0,00, 0,00, 0,00, 0,00
221, 29918,05, 42572,83, 0,00, 0,00, 0,00, 0,00, 0,00, 0,00, 0,00, 0,00, 0,00
222, 36609,32, 43553,33, 0,00, 0,00, 0,00, 0,00, 0,00, 0,00, 0,00, 0,00, 0,00
223, 54908,80, 44843,90, 0,00, 0,00, 0,00, 0,00, 0,00, 0,00, 0,00, 0,00, 0,00
224, 62733,72, 44903,80, 0,00, 0,00, 0,00, 0,00, 0,00, 0,00, 0,00, 0,00, 0,00
225, 45888,15, 43366,50, 0,00, 0,00, 0,00, 0,00, 0,00, 0,00, 0,00, 0,00, 0,00
226, 29993,47, 42565,63, 0,00, 0,00, 0,00, 0,00, 0,00, 0,00, 0,00, 0,00, 0,00
227, 36435,38, 43539,72, 0,00, 0,00, 0,00, 0,00, 0,00, 0,00, 0,00, 0,00, 0,00
228, 54700,21, 44822,69, 0,00, 0,00, 0,00, 0,00, 0,00, 0,00, 0,01, 0,00, 0,01
229, 62808,67, 44909,93, 0,00, 0,00, 0,00, 0,00, 0,00, 0,00, 0,00, 0,00, 0,00
230, 46100,65, 43378,72, 0,00, 0,00, 0,00, 0,00, 0,00, 0,00, 0,00, 0,00, 0,00
231, 30057,75, 42561,43, 0,00, 0,00, 0,00, 0,00, 0,00, 0,00, 0,00, 0,00, 0,00
232, 36254,21, 43521,39, 0,00, 0,00, 0,00, 0,00, 0,00, 0,00, 0,00, 0,00, 0,00
233, 54504,35, 44808,61, 0,00, 0,00, 0,00, 0,00, 0,00, 0,00, 0,00, 0,00, 0,00
234, 62888,62, 44919,65, 0,00, 0,00, 0,00, 0,00, 0,00, 0,00, 0,00, 0,00, 0,00
235, 46288,23, 43397,83, 0,00, 0,00, 0,00, 0,00, 0,00, 0,00, 0,00, 0,00, 0,00
236, 30161,00, 42573,48, 0,00, 0,00, 0,00, 0,00, 0,00, 0,00, 0,00, 0,00, 0,00
237, 36054,01, 43503,22, 0,00, 0,00, 0,00, 0,00, 0,00, 0,00, 0,00, 0,00, 0,00
238, 54272,18, 44787,17, 0,00, 0,00, 0,00, 0,00, 0,00, 0,00, 0,00, 0,00, 0,00
239, 62954,69, 44928,10, 0,00, 0,00, 0,00, 0,00, 0,00, 0,00, 0,00, 0,00, 0,00
240, 46479,85, 43405,25, 0,00, 0,00, 0,00, 0,00, 0,00, 0,00, 0,00, 0,00, 0,00
241, 30237,01, 42571,22, 0,00, 0,00, 0,00, 0,00, 0,00, 0,00, 0,00, 0,00, 0,00
242, 35912,26, 43501,84, 0,00, 0,00, 0,00, 0,00, 0,00, 0,00, 0,00, 0,00, 0,00
243, 54090,75, 44790,86, 0,00, 0,00, 0,00, 0,00, 0,00, 0,00, 0,00, 0,00, 0,00
244, 63021,48, 44947,17, 0,00, 0,00, 0,00, 0,00, 0,00, 0,00, 0,00, 0,00, 0,00
245, 46703,16, 43432,75, 0,00, 0,00, 0,00, 0,00, 0,00, 0,00, 0,00, 0,00, 0,00
246, 30365,54, 42577,01, 0,00, 0,00, 0,00, 0,00, 0,00, 0,00, 0,00, 0,00, 0,00
247, 35762,21, 43487,44, 0,00, 0,00, 0,00, 0,00, 0,00, 0,00, 0,00, 0,00, 0,00
248, 53893,99, 44778,12, 0,00, 0,00, 0,00, 0,00, 0,00, 0,00, 0,00, 0,00, 0,00
249, 63068,60, 44954,56, 0,00, 0,00, 0,00, 0,00, 0,00, 0,00, 0,00, 0,00, 0,00
250, 46877,69, 43436,01, 0,00, 0,00, 0,00, 0,00, 0,00, 0,00, 0,00, 0,00, 0,00
251, 30438,83, 42567,96, 0,00, 0,00, 0,00, 0,00, 0,00, 0,00, 0,00, 0,00, 0,00
252, 35582,21, 43460,29, 0,00, 0,00, 0,00, 0,00, 0,00, 0,00, 0,00, 0,00, 0,00
253, 53666,38, 44748,93, 0,00, 0,00, 0,00, 0,00, 0,00, 0,00, 0,00, 0,00, 0,00
254, 63110,28, 44955,86, 0,00, 0,00, 0,00, 0,00, 0,00, 0,00, 0,00, 0,00, 0,00
255, 47074,88, 43445,98, 0,00, 0,00, 0,00, 0,00, 0,00, 0,00, 0,00, 0,00, 0,00
0, 30553,69, 42568,76, 0,00, 0,00, 0,00, 0,00, 0,00, 0,00, 0,00, 0,00, 0,00
1, 35427,92, 43445,09, 0,00, 0,00, 0,00, 0,00, 0,00, 0,00, 0,00, 0,00, 0,00
2, 53452,92, 44730,18, 0,00, 0,00, 0,00, 0,00, 0,00, 0,00, 0,00, 0,01, 0,00
3, 63169,89, 44970,77, 0,00, 0,00, 0,00, 0,00, 0,00, 0,00, 0,00, 0,00, 0,00
4, 47292,64, 43463,14, 0,00, 0,00, 0,00, 0,00, 0,00, 0,00, 0,00, 0,00, 0,00
5, 30660,63, 42573,55, 0,00, 0,00, 0,00, 0,00, 0,00, 0,00, 0,00, 0,00, 0,00
6, 35258,11, 43442,80, 0,00, 0,00, 0,00, 0,00, 0,00, 0,00, 0,00, 0,00, 0,00
7, 53245,12, 44717,59, 0,00, 0,00, 0,00, 0,00, 0,00, 0,00, 0,00, 0,00, 0,00
8, 63232,43, 44974,14, 0,00, 0,00, 0,00, 0,00, 0,00, 0,00, 0,00, 0,00, 0,00
9, 47500,14, 43485,00, 0,00, 0,00, 0,00, 0,00, 0,00, 0,00, 0,00, 0,00, 0,00
10, 30783,20, 42581,55, 0,00, 0,00, 0,00, 0,00, 0,00, 0,00, 0,00, 0,00, 0,00
11, 35093,40, 43421,79, 0,00, 0,00, 0,00, 0,00, 0,00, 0,00, 0,00, 0,00, 0,00
12, 53070,82, 44725,82, 0,00, 0,00, 0,00, 0,00, 0,00, 0,00, 0,01, 0,00, 0,00
13, 63300,00, 45009,77, 0,00, 0,00, 0,00, 0,00, 0,00, 0,00, 0,00, 0,00, 0,00
14, 47712,59, 43508,63, 0,00, 0,00, 0,00, 0,00, 0,00, 0,00, 0,00, 0,00, 0,00
15, 30883,98, 42586,06, 0,00, 0,00, 0,00, 0,00, 0,00, 0,00, 0,00, 0,00, 0,00
16, 34948,65, 43416,54, 0,00, 0,00, 0,00, 0,00, 0,00, 0,00, 0,00, 0,00, 0,00
17, 52870,34, 44707,49, 0,00, 0,00, 0,00, 0,00, 0,00, 0,00, 0,00, 0,00, 0,00
18, 63365,58, 45015,45, 0,00, 0,00, 0,00, 0,00, 0,00, 0,00, 0,00, 0,00, 0,00
19, 47895,96, 43514,48, 0,00, 0,00, 0,00, 0,00, 0,00, 0,00, 0,00, 0,00, 0,00
20, 31003,21, 42584,34, 0,00, 0,00, 0,00, 0,00, 0,00, 0,00, 0,00, 0,00, 0,00
21, 34807,75, 43405,21, 0,00, 0,00, 0,00, 0,00, 0,00, 0,00, 0,00, 0,00, 0,00
22, 52681,34, 44695,60, 0,00, 0,00, 0,00, 0,00, 0,00, 0,00, 0,01, 0,00, 0,00
23, 63397,57, 45013,51, 0,00, 0,00, 0,00, 0,00, 0,00, 0,00, 0,00, 0,00, 0,00
24, 48068,01, 43517,93, 0,00, 0,00, 0,00, 0,00, 0,00, 0,00, 0,00, 0,00, 0,00
25, 31118,34, 42585,05, 0,00, 0,00, 0,00, 0,00, 0,00, 0,00, 0,00, 0,00, 0,00
26, 34643,88, 43385,81, 0,00, 0,00, 0,00, 0,00, 0,00, 0,00, 0,00, 0,00, 0,00
27, 52480,73, 44677,36, 0,00, 0,00, 0,00, 0,00, 0,00, 0,00, 0,00, 0,00, 0,00
28, 63449,11, 45019,50, 0,00, 0,00, 0,00, 0,00, 0,00, 0,00, 0,00, 0,00, 0,00
29, 48289,18, 43537,26, 0,00, 0,00, 0,00, 0,00, 0,00, 0,00, 0,00, 0,00, 0,00
30, 31210,30, 42580,41, 0,00, 0,00, 0,00, 0,00, 0,00, 0,00, 0,00, 0,00, 0,00
31, 34482,75, 43371,30, 0,00, 0,00, 0,00, 0,00, 0,00, 0,00, 0,01, 0,00, 0,00
32, 52265,62, 44664,06, 0,00, 0,00, 0,00, 0,00, 0,00, 0,00, 0,00, 0,00, 0,00
33, 63487,25, 45041,02, 0,00, 0,00, 0,00, 0,00, 0,00, 0,00, 0,00, 0,00, 0,00
34, 48510,19, 43563,35, 0,00, 0,00, 0,00, 0,00, 0,00, 0,00, 0,00, 0,00, 0,00
35, 31347,16, 42586,64, 0,00, 0,00, 0,00, 0,00, 0,00, 0,00, 0,00, 0,00, 0,00
36, 34323,63, 43352,50, 0,00, 0,00, 0,00, 0,00, 0,00, 0,00, 0,00, 0,00, 0,00
37, 52093,64, 44654,67, 0,00, 0,00, 0,00, 0,00, 0,00, 0,00, 0,00, 0,00, 0,00
38, 63542,77, 45052,89, 0,00, 0,00, 0,00, 0,00, 0,00, 0,00, 0,00, 0,00, 0,00
39, 48697,25, 43572,13, 0,00, 0,00, 0,00, 0,00, 0,00, 0,00, 0,00, 0,00, 0,00
40, 31461,85, 42589,28, 0,00, 0,00, 0,00, 0,00, 0,00, 0,00, 0,00, 0,00, 0,00
41, 34170,72, 43336,41, 0,00, 0,00, 0,00, 0,00, 0,00, 0,00, 0,01, 0,01, 0,00
42, 51878,46, 44637,04, 0,00, 0,00, 0,00, 0,00, 0,00, 0,00, 0,00, 0,00, 0,00
43, 63554,30, 45049,40, 0,00, 0,00, 0,00, 0,00, 0,00, 0,00, 0,00, 0,00, 0,00
44, 48847,30, 43570,10, 0,00, 0,00, 0,00, 0,00, 0,00, 0,00, 0,00, 0,00, 0,00
45, 31578,95, 42591,05, 0,00, 0,00, 0,00, 0,00, 0,00, 0,00, 0,00, 0,00, 0,00
46, 34023,40, 43329,66, 0,00, 0,00, 0,00, 0,00, 0,00, 0,00, 0,00, 0,00, 0,00
47, 51686,86, 44626,98, 0,00, 0,00, 0,00, 0,00, 0,00, 0,00, 0,00, 0,00, 0,00
48, 63599,16, 45063,46, 0,00, 0,00, 0,00, 0,00, 0,00, 0,00, 0,00, 0,00, 0,00
49, 49088,70, 43598,15, 0,00, 0,00, 0,00, 0,00, 0,00, 0,00, 0,00, 0,00, 0,00
50, 31696,14, 42601,33, 0,00, 0,00, 0,00, 0,00, 0,00, 0,00, 0,00, 0,00, 0,00
51, 33860,50, 43316,41, 0,00, 0,00, 0,00, 0,00, 0,00, 0,00, 0,01, 0,01, 0,00
52, 51487,40, 44618,86, 0,00, 0,00, 0,00, 0,00, 0,00, 0,00, 0,00, 0,00, 0,00
53, 63642,43, 45085,32, 0,00, 0,00, 0,00, 0,00, 0,00, 0,00, 0,00, 0,00, 0,00
54, 49286,80, 43615,25, 0,00, 0,00, 0,00, 0,00, 0,00, 0,00, 0,00, 0,00, 0,00
55, 31818,87, 42596,32, 0,00, 0,00, 0,00, 0,00, 0,00, 0,00, 0,00, 0,00, 0,00
56, 33701,76, 43296,02, 0,00, 0,00, 0,00, 0,00, 0,00, 0,00, 0,00, 0,00, 0,00
57, 51291,75, 44601,14, 0,00, 0,00, 0,00, 0,00, 0,00, 0,00, 0,00, 0,00, 0,00
58, 63657,43, 45081,79, 0,00, 0,00, 0,00, 0,00, 0,00, 0,00, 0,00, 0,00, 0,00
59, 49493,02, 43627,90, 0,00, 0,00, 0,00, 0,00, 0,00, 0,00, 0,00, 0,00, 0,00
60, 31942,63, 42603,18, 0,00, 0,00, 0,00, 0,00, 0,00, 0,00, 0,00, 0,00, 0,00
61, 33569,84, 43292,94, 0,00, 0,00, 0,00, 0,00, 0,00, 0,00, 0,01, 0,01, 0,00
62, 51115,98, 44600,36, 0,00, 0,00, 0,00, 0,00, 0,00, 0,00, 0,00, 0,00, 0,00
63, 63679,54, 45099,20, 0,00, 0,00, 0,00, 0,00, 0,00, 0,00, 0,00, 0,00, 0,00
64, 49677,04, 43646,56, 0,00, 0,00, 0,00, 0,00, 0,00, 0,00, 0,00, 0,00, 0,00
65, 32072,49, 42600,21, 0,00, 0,00, 0,00, 0,00, 0,00, 0,00, 0,00, 0,00, 0,00
66, 33407,25, 43264,01, 0,00, 0,00, 0,00, 0,00, 0,00, 0,00, 0,00, 0,00, 0,00
67, 50880,64, 44569,96, 0,00, 0,00, 0,00, 0,00, 0,00, 0,00, 0,00, 0,00, 0,00
68, 63656,20, 45084,65, 0,00, 0,00, 0,00, 0,00, 0,00, 0,00, 0,00, 0,00, 0,00
69, 49869,82, 43655,53, 0,00, 0,00, 0,00, 0,00, 0,00, 0,00, 0,00, 0,00, 0,00
70, 32201,69, 42602,58, 0,00, 0,00, 0,00, 0,00, 0,00, 0,00, 0,00, 0,00, 0,00
71, 33250,19, 43255,03, 0,00, 0,00, 0,00, 0,00, 0,00, 0,00, 0,02, 0,01, 0,00
72, 50690,45, 44565,84, 0,00, 0,00, 0,00, 0,00, 0,00, 0,00, 0,00, 0,00, 0,00
73, 63684,12, 45098,40, 0,00, 0,00, 0,00, 0,00, 0,00, 0,00, 0,00, 0,00, 0,00
74, 50058,21, 43668,13, 0,00, 0,00, 0,00, 0,00, 0,00, 0,00, 0,00, 0,00, 0,00
75, 32317,36, 42611,90, 0,00, 0,00, 0,00, 0,00, 0,00, 0,00, 0,00, 0,00, 0,00
76, 33110,73, 43239,29, 0,00, 0,00, 0,00, 0,00, 0,00, 0,00, 0,00, 0,00, 0,00
77, 50507,88, 44545,44, 0,00, 0,00, 0,00, 0,00, 0,00, 0,00, 0,00, 0,00, 0,00
78, 63732,76, 45111,21, 0,00, 0,00, 0,00, 0,00, 0,00, 0,00, 0,00, 0,00, 0,00
79, 50235,86, 43680,96, 0,00, 0,00, 0,00, 0,00, 0,00, 0,00, 0,00, 0,00, 0,00
80, 32395,19, 42600,41, 0,00, 0,00, 0,00, 0,00, 0,00, 0,00, 0,00, 0,00, 0,00
81, 32959,84, 43217,50, 0,00, 0,00, 0,00, 0,00, 0,00, 0,00, 0,01, 0,01, 0,00
82, 50311,50, 44530,82, 0,00, 0,00, 0,00, 0,00, 0,00, 0,00, 0,00, 0,00, 0,00
83, 63743,80, 45113,55, 0,00, 0,00, 0,00, 0,00, 0,00, 0,00, 0,00, 0,00, 0,00
84, 50434,88, 43700,03, 0,00, 0,00, 0,00, 0,00, 0,00, 0,00, 0,00, 0,00, 0,00
85, 32531,33, 42613,78, 0,00, 0,00, 0,00, 0,00, 0,00, 0,00, 0,00, 0,00, 0,00
86, 32806,95, 43211,35, 0,00, 0,00, 0,00, 0,00, 0,00, 0,00, 0,00, 0,00, 0,00
87, 50104,47, 44524,41, 0,00, 0,00, 0,00, 0,00, 0,00, 0,00, 0,00, 0,00, 0,00
88, 63727,97, 45130,05, 0,00, 0,00, 0,00, 0,00, 0,00, 0,00, 0,00, 0,00, 0,00
89, 50634,70, 43721,17, 0,00, 0,00, 0,00, 0,00, 0,00, 0,00, 0,00, 0,00, 0,00
90, 32684,08, 42624,20, 0,00, 0,00, 0,00, 0,00, 0,00, 0,00, 0,00, 0,00, 0,00
91, 32678,29, 43195,97, 0,00, 0,00, 0,00, 0,00, 0,00, 0,00, 0,01, 0,01, 0,00
92, 49918,15, 44503,06, 0,00, 0,00, 0,00, 0,00, 0,00, 0,00, 0,00, 0,00, 0,00
93, 63741,05, 45128,57, 0,00, 0,00, 0,00, 0,00, 0,00, 0,00, 0,00, 0,00, 0,00
94, 50835,91, 43728,13, 0,00, 0,00, 0,00, 0,00, 0,00, 0,00, 0,00, 0,00, 0,00
95, 32826,66, 42624,91, 0,00, 0,00, 0,00, 0,00, 0,00, 0,00, 0,00, 0,00, 0,00
96, 32545,48, 43185,74, 0,00, 0,00, 0,00, 0,00, 0,00, 0,00, 0,00, 0,00, 0,00
97, 49731,80, 44496,73, 0,00, 0,00, 0,00, 0,00, 0,00, 0,00, 0,00, 0,00, 0,00
98, 63725,40, 45128,37, 0,00, 0,00, 0,00, 0,00, 0,00, 0,00, 0,00, 0,00, 0,00
99, 51019,73, 43744,51, 0,00, 0,00, 0,00, 0,00, 0,00, 0,00, 0,00, 0,00, 0,00
100, 32971,88, 42637,54, 0,00, 0,00, 0,00, 0,00, 0,00, 0,00, 0,00, 0,00, 0,00
101, 32398,41, 43166,16, 0,00, 0,00, 0,00, 0,00, 0,00, 0,00, 0,00, 0,00, 0,01
102, 49506,63, 44472,46, 0,00, 0,00, 0,00, 0,00, 0,00, 0,00, 0,00, 0,00, 0,00
103, 63708,08, 45145,92, 0,00, 0,00, 0,00, 0,00, 0,00, 0,00, 0,00, 0,00, 0,00
104, 51229,77, 43766,01, 0,00, 0,00, 0,00, 0,00, 0,00, 0,00, 0,00, 0,00, 0,00
105, 33110,93, 42636,11, 0,00, 0,00, 0,00, 0,00, 0,00, 0,00, 0,00, 0,00, 0,00
106, 32265,84, 43151,25, 0,00, 0,00, 0,00, 0,00, 0,00, 0,00, 0,00, 0,00, 0,00
107, 49318,34, 44460,37, 0,00, 0,00, 0,00, 0,00, 0,00, 0,00, 0,00, 0,00, 0,00
108, 63704,57, 45134,38, 0,00, 0,00, 0,00, 0,00, 0,00, 0,00, 0,00, 0,00, 0,00
109, 51429,42, 43763,84, 0,00, 0,00, 0,00, 0,00, 0,00, 0,00, 0,00, 0,00, 0,00
110, 33274,62, 42637,05, 0,00, 0,00, 0,00, 0,00, 0,00, 0,00, 0,00, 0,00, 0,00
111, 32119,21, 43136,27, 0,00, 0,00, 0,00, 0,00, 0,00, 0,00, 0,01, 0,00, 0,01
112, 49108,05, 44448,19, 0,00, 0,00, 0,00, 0,00, 0,00, 0,00, 0,00, 0,00, 0,00
113, 63689,59, 45148,06, 0,00, 0,00, 0,00, 0,00, 0,00, 0,00, 0,00, 0,00, 0,00
114, 51637,64, 43784,92, 0,00, 0,00, 0,00, 0,00, 0,00, 0,00, 0,00, 0,00, 0,00
115, 33406,85, 42635,82, 0,00, 0,00, 0,00, 0,00, 0,00, 0,00, 0,00, 0,00, 0,00
116, 31990,24, 43130,06, 0,00, 0,00, 0,00, 0,00, 0,00, 0,00, 0,00, 0,00, 0,00
117, 48924,43, 44449,75, 0,00, 0,00, 0,00, 0,00, 0,00, 0,00, 0,00, 0,00, 0,00
118, 63654,08, 45157,18, 0,00, 0,00, 0,00, 0,00, 0,00, 0,00, 0,00, 0,00, 0,00
119, 51839,71, 43815,21, 0,00, 0,00, 0,00, 0,00, 0,00, 0,00, 0,00, 0,00, 0,00
120, 33573,66, 42656,65, 0,00, 0,00, 0,00, 0,00, 0,00, 0,00, 0,00, 0,00, 0,00
121, 31865,52, 43124,43, 0,00, 0,00, 0,00, 0,00, 0,00, 0,00, 0,01, 0,01, 0,00
122, 48728,88, 44442,78, 0,00, 0,00, 0,00, 0,00, 0,00, 0,00, 0,00, 0,00, 0,00
123, 63633,65, 45169,52, 0,00, 0,00, 0,00, 0,00, 0,00, 0,00, 0,00, 0,00, 0,00
124, 52063,54, 43828,30, 0,00, 0,00, 0,00, 0,00, 0,00, 0,00, 0,00, 0,00, 0,00
125, 33747,58, 42662,24, 0,00, 0,00, 0,00, 0,00, 0,00, 0,00, 0,00, 0,00, 0,00
126, 31725,08, 43099,44, 0,00, 0,00, 0,00, 0,00, 0,00, 0,00, 0,00, 0,00, 0,00
127, 48501,99, 44401,71, 0,00, 0,00, 0,00, 0,00, 0,00, 0,00, 0,00, 0,00, 0,00
128, 63581,46, 45149,27, 0,00, 0,00, 0,00, 0,00, 0,00, 0,00, 0,00, 0,00, 0,00
129, 52249,79, 43833,07, 0,00, 0,00, 0,00, 0,00, 0,00, 0,00, 0,00, 0,00, 0,00
130, 33896,60, 42642,05, 0,00, 0,00, 0,00, 0,00, 0,00, 0,00, 0,00, 0,01, 0,00
131, 31569,45, 43053,23, 0,00, 0,00, 0,00, 0,00, 0,00, 0,00, 0,00, 0,00, 0,00
132, 48275,25, 44373,17, 0,00, 0,00, 0,00, 0,00, 0,00, 0,00, 0,00, 0,00, 0,00
133, 63543,62, 45148,00, 0,00, 0,00, 0,00, 0,00, 0,00, 0,00, 0,00, 0,00, 0,00
134, 52457,62, 43848,55, 0,00, 0,00, 0,00, 0,00, 0,00, 0,00, 0,00, 0,00, 0,00
135, 34067,70, 42670,80, 0,00, 0,00, 0,00, 0,00, 0,00, 0,00, 0,00, 0,00, 0,00
136, 31485,40, 43076,19, 0,00, 0,00, 0,00, 0,00, 0,00, 0,00, 0,00, 0,00, 0,00
137, 48110,70, 44391,30, 0,00, 0,00, 0,00, 0,00, 0,00, 0,00, 0,00, 0,00, 0,00
138, 63506,40, 45177,79, 0,00, 0,00, 0,00, 0,00, 0,00, 0,00, 0,00, 0,00, 0,00
139, 52687,57, 43891,96, 0,00, 0,00, 0,00, 0,00, 0,00, 0,00, 0,00, 0,00, 0,00
140, 34252,10, 42699,56, 0,00, 0,00, 0,00, 0,00, 0,00, 0,00, 0,00, 0,01, -0,00
141, 31359,90, 43068,99, 0,00, 0,00, 0,00, 0,00, 0,00, 0,00, 0,00, 0,00, 0,00
142, 47906,61, 44380,93, 0,00, 0,00, 0,00, 0,00, 0,00, 0,00, 0,00, 0,00, 0,00
143, 63471,98, 45178,60, 0,00, 0,00, 0,00, 0,00, 0,00, 0,00, 0,00, 0,00, 0,00
144, 52884,74, 43897,93, 0,00, 0,00, 0,00, 0,00, 0,00, 0,00, 0,00, 0,00, 0,00
145, 34412,21, 42693,89, 0,00, 0,00, 0,00, 0,00, 0,00, 0,00, 0,00, 0,00, 0,00
146, 31217,45, 43027,96, 0,00, 0,00, 0,00, 0,00, 0,00, 0,00, 0,00, 0,00, 0,00
147, 47686,62, 44340,79, 0,00, 0,00, 0,00, 0,00, 0,00, 0,00, 0,00, 0,00, 0,00
148, 63387,89, 45163,40, 0,00, 0,00, 0,00, 0,00, 0,00, 0,00, 0,00, 0,00, 0,00
149, 53095,52, 43889,32, 0,00, 0,00, 0,00, 0,00, 0,00, 0,00, 0,00, 0,00, 0,00
150, 34628,68, 42681,46, 0,00, 0,00, 0,00, 0,00, 0,00, 0,00, 0,00, 0,01, 0,00
151, 31114,86, 43007,57, 0,00, 0,00, 0,00, 0,00, 0,00, 0,00, 0,00, 0,00, 0,00
152, 47451,84, 44318,81, 0,00, 0,00, 0,00, 0,00, 0,00, 0,00, 0,00, 0,00, 0,00
153, 63274,12, 45160,49, 0,00, 0,00, 0,00, 0,00, 0,00, 0,00, 0,00, 0,00, 0,00
154, 53295,57, 43917,24, 0,00, 0,00, 0,00, 0,00, 0,00, 0,00, 0,00, 0,00, 0,00
155, 34801,64, 42696,93, 0,00, 0,00, 0,00, 0,00, 0,00, 0,00, 0,00, 0,00, 0,00
156, 31006,92, 43009,25, 0,00, 0,00, 0,00, 0,00, 0,00, 0,00, 0,00, 0,00, 0,00
157, 47260,21, 44320,47, 0,00, 0,00, 0,00, 0,00, 0,00, 0,00, 0,00, 0,00, 0,00
158, 63216,01, 45170,95, 0,00, 0,00, 0,00, 0,00, 0,00, 0,00, 0,00, 0,00, 0,00
159, 53505,63, 43944,69, 0,00, 0,00, 0,00, 0,00, 0,00, 0,00, 0,00, 0,00, 0,00
160, 34974,69, 42714,63, 0,00, 0,00, 0,00, 0,00, 0,00, 0,00, 0,00, 0,00, 0,00
161, 30895,65, 43002,50, 0,00, 0,00, 0,00, 0,00, 0,00, 0,00, 0,00, 0,00, 0,00
162, 47091,48, 44326,14, 0,00, 0,00, 0,00, 0,00, 0,00, 0,00, 0,00, 0,00, 0,00
163, 63221,59, 45194,33, 0,00, 0,00, 0,00, 0,00, 0,00, 0,00, 0,00, 0,00, 0,00
164, 53684,13, 43977,05, 0,00, 0,00, 0,00, 0,00, 0,00, 0,00, 0,00, 0,00, 0,00
165, 35081,44, 42739,02, 0,00, 0,00, 0,00, 0,00, 0,00, 0,00, 0,00, 0,00, 0,00
166, 30769,48, 43009,25, 0,00, 0,00, 0,00, 0,00, 0,00, 0,00, 0,00, 0,00, 0,00
167, 46896,77, 44313,14, 0,00, 0,00, 0,00, 0,00, 0,00, 0,00, 0,00, 0,00, 0,00
168, 63162,32, 45198,42, 0,00, 0,00, 0,00, 0,00, 0,00, 0,00, 0,00, 0,00, 0,00
169, 53884,31, 43987,63, 0,00, 0,00, 0,00, 0,00, 0,00, 0,00, 0,00, 0,00, 0,00
170, 35244,27, 42730,39, 0,00, 0,00, 0,00, 0,00, 0,00, 0,00, 0,00, 0,00, 0,00
171, 30665,90, 42978,78, 0,00, 0,00, 0,00, 0,00, 0,00, 0,00, 0,00, 0,00, 0,00
172, 46694,71, 44283,10, 0,00, 0,00, 0,00, 0,00, 0,00, 0,00, 0,00, 0,00, 0,00
173, 63084,98, 45180,25, 0,00, 0,00, 0,00, 0,00, 0,00, 0,00, 0,00, 0,00, 0,00
174, 54046,32, 43980,25, 0,00, 0,00, 0,00, 0,00, 0,00, 0,00, 0,00, 0,00, 0,00
175, 35384,00, 42729,11, 0,00, 0,00, 0,00, 0,00, 0,00, 0,00, 0,00, 0,00, 0,00
176, 30554,25, 42962,29, 0,00, 0,00, 0,00, 0,00, 0,00, 0,00, 0,00, 0,00, 0,00
177, 46550,48, 44271,72, 0,00, 0,00, 0,00, 0,00, 0,00, 0,00, 0,00, 0,00, 0,00
178, 63308,63, 45199,45, 0,00, 0,00, 0,00, 0,00, 0,00, 0,00, 0,00, 0,00, 0,00
179, 54469,86, 44011,86, 0,00, 0,00, 0,00, 0,00, 0,00, 0,00, 0,00, 0,00, 0,00
180, 35463,46, 42725,65, 0,00, 0,00, 0,00, 0,00, 0,00, 0,00, 0,01, 0,00, 0,00
181, 30311,89, 42929,25, 0,00, 0,00, 0,00, 0,00, 0,00, 0,00, 0,00, 0,00, 0,00
182, 46296,25, 44254,04, 0,00, 0,00, 0,00, 0,00, 0,00, 0,00, 0,00, 0,00, 0,00
183, 63208,14, 45194,76, 0,00, 0,00, 0,00, 0,00, 0,00, 0,00, 0,00, 0,00, 0,00
184, 54626,84, 44023,37, 0,00, 0,00, 0,00, 0,00, 0,00, 0,00, 0,00, 0,00, 0,00
185, 35602,82, 42745,95, 0,00, 0,00, 0,00, 0,00, 0,00, 0,00, 0,00, 0,00, 0,00
186, 30211,49, 42937,34, 0,00, 0,00, 0,00, 0,00, 0,00, 0,00, 0,00, 0,00, 0,00
187, 46101,37, 44252,16, 0,00, 0,00, 0,00, 0,00, 0,00, 0,00, 0,00, 0,00, 0,00
188, 63127,05, 45199,52, 0,00, 0,00, 0,00, 0,00, 0,00, 0,00, 0,00, 0,00, 0,00
189, 54844,81, 44042,57, 0,00, 0,00, 0,00, 0,00, 0,00, 0,00, 0,00, 0,00, 0,00
190, 35771,48, 42740,29, 0,00, 0,00, 0,00, 0,00, 0,00, 0,00, 0,01, 0,01, 0,00
191, 30099,21, 42911,73, 0,00, 0,00, 0,00, 0,00, 0,00, 0,00, 0,00, 0,00, 0,00
192, 45895,08, 44239,02, 0,00, 0,00, 0,00, 0,00, 0,00, 0,00, 0,00, 0,00, 0,00
193, 63055,57, 45208,73, 0,00, 0,00, 0,00, 0,00, 0,00, 0,00, 0,00, 0,00, 0,00
194, 55047,94, 44066,21, 0,00, 0,00, 0,00, 0,00, 0,00, 0,00, 0,00, 0,00, 0,00
195, 35942,25, 42752,34, 0,00, 0,00, 0,00, 0,00, 0,00, 0,00, 0,00, 0,00, 0,00
196, 29998,90, 42900,57, 0,00, 0,00, 0,00, 0,00, 0,00, 0,00, 0,00, 0,00, 0,00
197, 45696,11, 44218,48, 0,00, 0,00, 0,00, 0,00, 0,00, 0,00, 0,00, 0,00, 0,00
198, 62940,27, 45183,22, 0,00, 0,00, 0,00, 0,00, 0,00, 0,00, 0,00, 0,00, 0,00
199, 55227,71, 44060,18, 0,00, 0,00, 0,00, 0,00, 0,00, 0,00, 0,00, 0,00, 0,00
200, 36104,75, 42752,71, 0,00, 0,00, 0,00, 0,00, 0,00, 0,00, 0,01, 0,01, 0,00
201, 29883,79, 42878,45, 0,00, 0,00, 0,00, 0,00, 0,00, 0,00, 0,00, 0,00, 0,00
202, 45471,00, 44194,05, 0,00, 0,00, 0,00, 0,00, 0,00, 0,00, 0,00, 0,00, 0,00
203, 62868,17, 45188,21, 0,00, 0,00, 0,00, 0,00, 0,00, 0,00, 0,00, 0,00, 0,00
204, 55428,48, 44081,57, 0,00, 0,00, 0,00, 0,00, 0,00, 0,00, 0,00, 0,00, 0,00
205, 36279,74, 42759,49, 0,00, 0,00, 0,00, 0,00, 0,00, 0,00, 0,00, 0,00, 0,00
206, 29805,96, 42866,82, 0,00, 0,00, 0,00, 0,00, 0,00, 0,00, 0,00, 0,00, 0,00
207, 45277,55, 44182,09, 0,00, 0,00, 0,00, 0,00, 0,00, 0,00, 0,00, 0,00, 0,00
208, 62777,46, 45183,98, 0,00, 0,00, 0,00, 0,00, 0,00, 0,00, 0,00, 0,00, 0,00
209, 55621,38, 44094,69, 0,00, 0,00, 0,00, 0,00, 0,00, 0,00, 0,00, 0,00, 0,00
210, 36389,71, 42762,11, 0,00, 0,00, 0,00, 0,00, 0,00, 0,00, 0,01, 0,00, 0,00
211, 29676,54, 42851,78, 0,00, 0,00, 0,00, 0,00, 0,00, 0,00, 0,00, 0,00, 0,00
212, 45069,81, 44174,33, 0,00, 0,00, 0,00, 0,00, 0,00, 0,00, 0,00, 0,00, 0,00
213, 62716,47, 45202,67, 0,00, 0,00, 0,00, 0,00, 0,00, 0,00, 0,00, 0,00, 0,00
214, 55881,46, 44136,38, 0,00, 0,00, 0,00, 0,00, 0,00, 0,00, 0,00, 0,00, 0,00
215, 36593,94, 42785,62, 0,00, 0,00, 0,00, 0,00, 0,00, 0,00, 0,00, 0,00, 0,00
216, 29590,13, 42849,93, 0,00, 0,00, 0,00, 0,00, 0,00, 0,00, 0,00, 0,00, 0,00
217, 44898,98, 44170,75, 0,00, 0,00, 0,00, 0,00, 0,00, 0,00, 0,00, 0,00, 0,00
218, 62658,66, 45210,45, 0,00, 0,00, 0,00, 0,00, 0,00, 0,00, 0,00, 0,00, 0,00
219, 56077,80, 44145,50, 0,00, 0,00, 0,00, 0,00, 0,00, 0,00, 0,00, 0,00, 0,00
220, 36757,11, 42788,08, 0,00, 0,00, 0,00, 0,00, 0,00, 0,00, 0,00, 0,01, 0,00
221, 29516,68, 42843,93, 0,00, 0,00, 0,00, 0,00, 0,00, 0,00, 0,00, 0,00, 0,00
222, 44699,22, 44150,26, 0,00, 0,00, 0,00, 0,00, 0,00, 0,00, 0,00, 0,00, 0,00
223, 62489,17, 45184,23, 0,00, 0,00, 0,00, 0,00, 0,00, 0,00, 0,00, 0,00, 0,00
224, 56127,39, 44150,13, 0,00, 0,00, 0,00, 0,00, 0,00, 0,00, 0,00, 0,00, 0,00
225, 37029,20, 42803,25, 0,00, 0,00, 0,00, 0,00, 0,00, 0,00, 0,00, 0,00, 0,00
226, 29532,38, 42823,21, 0,00, 0,00, 0,00, 0,00, 0,00, 0,00, 0,00, 0,00, 0,00
227, 44480,86, 44128,76, 0,00, 0,00, 0,00, 0,00, 0,00, 0,00, 0,00, 0,00, 0,00
228, 62272,96, 45185,79, 0,00, 0,00, 0,00, 0,00, 0,00, 0,00, 0,00, 0,00, 0,00
229, 56323,93, 44185,55, 0,00, 0,00, 0,00, 0,00, 0,00, 0,00, 0,00, 0,01, 0,00
230, 37157,70, 42819,79, 0,00, 0,00, 0,00, 0,00, 0,00, 0,00, 0,00, 0,00, 0,00
231, 29429,58, 42824,58, 0,00, 0,00, 0,00, 0,00, 0,00, 0,00, 0,00, 0,00, 0,00
232, 44328,58, 44133,05, 0,00, 0,00, 0,00, 0,00, 0,00, 0,00, 0,00, 0,00, 0,00
233, 62206,82, 45189,59, 0,00, 0,00, 0,00, 0,00, 0,00, 0,00, 0,00, 0,00, 0,00
234, 56549,55, 44200,33, 0,00, 0,00, 0,00, 0,00, 0,00, 0,00, 0,00, 0,00, 0,00
235, 37353,63, 42823,66, 0,00, 0,00, 0,00, 0,00, 0,00, 0,00, 0,00, 0,00, 0,00
236, 29340,66, 42802,67, 0,00, 0,00, 0,00, 0,00, 0,00, 0,00, 0,00, 0,00, 0,00
237, 44109,11, 44107,52, 0,00, 0,00, 0,00, 0,00, 0,00, 0,00, 0,00, 0,00, 0,00
238, 62117,35, 45185,88, 0,00, 0,00, 0,00, 0,00, 0,00, 0,00, 0,00, 0,00, 0,00
239, 56770,28, 44214,72, 0,00, 0,00, 0,00, 0,00, 0,00, 0,00, 0,01, 0,00, 0,01
240, 37518,74, 42830,81, 0,00, 0,00, 0,00, 0,00, 0,00, 0,00, 0,00, 0,00, 0,00
241, 29276,29, 42795,50, 0,00, 0,00, 0,00, 0,00, 0,00, 0,00, 0,00, 0,00, 0,00
242, 43946,12, 44100,64, 0,00, 0,00, 0,00, 0,00, 0,00, 0,00, 0,00, 0,00, 0,00
243, 62011,07, 45178,33, 0,00, 0,00, 0,00, 0,00, 0,00, 0,00, 0,00, 0,00, 0,00
244, 56959,82, 44228,69, 0,00, 0,00, 0,00, 0,00, 0,00, 0,00, 0,00, 0,00, 0,00
245, 37684,19, 42838,88, 0,00, 0,00, 0,00, 0,00, 0,00, 0,00, 0,00, 0,00, 0,00
246, 29196,96, 42786,73, 0,00, 0,00, 0,00, 0,00, 0,00, 0,00, 0,00, 0,00, 0,00
247, 43730,88, 44083,99, 0,00, 0,00, 0,00, 0,00, 0,00, 0,00, 0,00, 0,00, 0,00
248, 61903,45, 45182,80, 0,00, 0,00, 0,00, 0,00, 0,00, 0,00, 0,00, 0,00, 0,00
249, 57135,28, 44244,14, 0,00, 0,00, 0,00, 0,00, 0,00, 0,00, 0,01, 0,00, 0,01
250, 37834,75, 42843,13, 0,00, 0,00, 0,00, 0,00, 0,00, 0,00, 0,00, 0,00, 0,00
251, 29125,91, 42765,14, 0,00, 0,00, 0,00, 0,00, 0,00, 0,00, 0,00, 0,00, 0,00
252, 43550,72, 44066,26, 0,00, 0,00, 0,00, 0,00, 0,00, 0,00, 0,00, 0,00, 0,00
253, 61823,94, 45174,77, 0,00, 0,00, 0,00, 0,00, 0,00, 0,00, 0,00, 0,00, 0,00
254, 57334,99, 44256,70, 0,00, 0,00, 0,00, 0,00, 0,00, 0,00, 0,00, 0,00, 0,00
255, 37867,74, 42841,88, 0,00, 0,00, 0,00, 0,00, 0,00, 0,00, 0,00, 0,00, 0,00
0, 28859,92, 42750,04, 0,00, 0,00, 0,00, 0,00, 0,00, 0,00, 0,00, 0,00, 0,00
1, 43275,57, 44050,79, 0,00, 0,00, 0,00, 0,00, 0,00, 0,00, 0,00, 0,00, 0,00
2, 61990,75, 45192,19, 0,00, 0,00, 0,00, 0,00, 0,00, 0,00, 0,00, 0,00, 0,00
3, 57923,40, 44298,47, 0,00, 0,00, 0,00, 0,00, 0,00, 0,00, 0,01, 0,00, 0,00
4, 38015,33, 42855,91, 0,00, 0,00, 0,00, 0,00, 0,00, 0,00, 0,00, 0,00, 0,00
5, 28695,08, 42746,73, 0,00, 0,00, 0,00, 0,00, 0,00, 0,00, 0,00, 0,00, 0,00
6, 43033,10, 44040,22, 0,00, 0,00, 0,00, 0,00, 0,00, 0,00, 0,00, 0,00, 0,00
7, 61854,96, 45191,58, 0,00, 0,00, 0,00, 0,00, 0,00, 0,00, 0,00, 0,00, 0,00
8, 58143,23, 44336,58, 0,00, 0,00, 0,00, 0,00, 0,00, 0,00, 0,00, 0,00, 0,00
9, 38200,56, 42867,94, 0,00, 0,00, 0,00, 0,00, 0,00, 0,00, 0,00, 0,00, 0,00
10, 28651,11, 42738,84, 0,00, 0,00, 0,00, 0,00, 0,00, 0,00, 0,00, 0,00, 0,00
11, 42868,03, 44048,34, 0,00, 0,00, 0,00, 0,00, 0,00, 0,00, 0,00, 0,00, 0,00
12, 61758,49, 45196,75, 0,00, 0,00, 0,00, 0,00, 0,00, 0,00, 0,00, 0,00, 0,00
13, 58346,77, 44336,20, 0,00, 0,00, 0,00, 0,00, 0,00, 0,00, 0,00, 0,00, 0,00
14, 38372,60, 42863,36, 0,00, 0,00, 0,00, 0,00, 0,00, 0,00, 0,00, 0,00, 0,00
15, 28552,86, 42701,60, 0,00, 0,00, 0,00, 0,00, 0,00, 0,00, 0,00, 0,00, 0,00
16, 42634,88, 44002,78, 0,00, 0,00, 0,00, 0,00, 0,00, 0,00, 0,00, 0,00, 0,00
17, 61627,22, 45172,61, 0,00, 0,00, 0,00, 0,00, 0,00, 0,00, 0,00, 0,00, 0,00
18, 58548,02, 44335,09, 0,00, 0,00, 0,00, 0,00, 0,00, 0,00, 0,00, 0,00, 0,00
19, 38509,93, 42858,73, 0,00, 0,00, 0,00, 0,00, 0,00, 0,00, 0,00, 0,00, 0,00
20, 28484,15, 42687,56, 0,00, 0,00, 0,00, 0,00, 0,00, 0,00, 0,00, 0,00, 0,00
21, 42440,95, 43994,07, 0,00, 0,00, 0,00, 0,00, 0,00, 0,00, 0,00, 0,00, 0,00
22, 61494,56, 45176,18, 0,00, 0,00, 0,00, 0,00, 0,00, 0,00, 0,00, 0,00, 0,00
23, 58758,02, 44368,05, 0,00, 0,00, 0,00, 0,00, 0,00, 0,00, 0,01, 0,01, 0,00
24, 38723,23, 42878,82, 0,00, 0,00, 0,00, 0,00, 0,00, 0,00, 0,00, 0,00, 0,00
25, 28449,93, 42692,68, 0,00, 0,00, 0,00, 0,00, 0,00, 0,00, 0,00, 0,00, 0,00
26, 42254,07, 43988,03, 0,00, 0,00, 0,00, 0,00, 0,00, 0,00, 0,00, 0,00, 0,00
27, 61351,34, 45161,27, 0,00, 0,00, 0,00, 0,00, 0,00, 0,00, 0,00, 0,00, 0,00
28, 58950,96, 44394,39, 0,00, 0,00, 0,00, 0,00, 0,00, 0,00, 0,00, 0,00, 0,00
29, 38957,50, 42910,81, 0,00, 0,00, 0,00, 0,00, 0,00, 0,00, 0,00, 0,00, 0,00
30, 28449,23, 42698,58, 0,00, 0,00, 0,00, 0,00, 0,00, 0,00, 0,00, 0,00, 0,00
31, 42115,87, 43990,80, 0,00, 0,00, 0,00, 0,00, 0,00, 0,00, 0,00, 0,00, 0,00
32, 61514,01, 45208,50, 0,00, 0,00, 0,00, 0,00, 0,00, 0,00, 0,00, 0,00, 0,00
33, 59508,01, 44439,20, 0,00, 0,00, 0,00, 0,00, 0,00, 0,00, 0,01, 0,01, 0,00
34, 39005,89, 42901,89, 0,00, 0,00, 0,00, 0,00, 0,00, 0,00, 0,00, 0,00, 0,00
35, 28155,49, 42663,89, 0,00, 0,00, 0,00, 0,00, 0,00, 0,00, 0,00, 0,00, 0,00
36, 41804,42, 43964,16, 0,00, 0,00, 0,00, 0,00, 0,00, 0,00, 0,00, 0,00, 0,00
37, 61362,84, 45180,54, 0,00, 0,00, 0,00, 0,00, 0,00, 0,00, 0,00, 0,00, 0,00
38, 59732,60, 44436,07, 0,00, 0,00, 0,00, 0,00, 0,00, 0,00, 0,00, 0,00, 0,00
39, 39198,50, 42891,79, 0,00, 0,00, 0,00, 0,00, 0,00, 0,00, 0,00, 0,00, 0,00
40, 28092,28, 42626,32, 0,00, 0,00, 0,00, 0,00, 0,00, 0,00, 0,00, 0,00, 0,00
41, 41560,07, 43909,44, 0,00, 0,00, 0,00, 0,00, 0,00, 0,00, 0,00, 0,00, 0,00
42, 61191,34, 45146,75, 0,00, 0,00, 0,00, 0,00, 0,00, 0,00, 0,00, 0,00, 0,00
43, 59956,16, 44434,20, 0,00, 0,00, 0,00, 0,00, 0,00, 0,00, 0,01, 0,00, -0,00
44, 39314,46, 42898,41, 0,00, 0,00, 0,00, 0,00, 0,00, 0,00, 0,00, 0,00, 0,00
45, 27896,52, 42626,18, 0,00, 0,00, 0,00, 0,00, 0,00, 0,00, 0,00, 0,00, 0,00
46, 41265,07, 43920,39, 0,00, 0,00, 0,00, 0,00, 0,00, 0,00, 0,00, 0,00, 0,00
47, 61048,33, 45170,04, 0,00, 0,00, 0,00, 0,00, 0,00, 0,00, 0,00, 0,00, 0,00
48, 60252,72, 44491,35, 0,00, 0,00, 0,00, 0,00, 0,00, 0,00, 0,00, 0,00, 0,00
49, 39558,14, 42921,56, 0,00, 0,00, 0,00, 0,00, 0,00, 0,00, 0,00, 0,00, 0,00
50, 27899,51, 42626,68, 0,00, 0,00, 0,00, 0,00, 0,00, 0,00, 0,00, 0,00, 0,00
51, 41085,61, 43917,45, 0,00, 0,00, 0,00, 0,00, 0,00, 0,00, 0,00, 0,00, 0,00
52, 60898,53, 45166,70, 0,00, 0,00, 0,00, 0,00, 0,00, 0,00, 0,00, 0,00, 0,00
53, 60451,09, 44503,68, 0,00, 0,00, 0,00, 0,00, 0,00, 0,00, 0,01, 0,00, 0,00
54, 39788,65, 42937,39, 0,00, 0,00, 0,00, 0,00, 0,00, 0,00, 0,00, 0,00, 0,00
55, 27878,30, 42625,69, 0,00, 0,00, 0,00, 0,00, 0,00, 0,00, 0,00, 0,00, 0,00
56, 40874,57, 43907,79, 0,00, 0,00, 0,00, 0,00, 0,00, 0,00, 0,00, 0,00, 0,00
57, 60724,08, 45168,83, 0,00, 0,00, 0,00, 0,00, 0,00, 0,00, 0,00, 0,00, 0,00
58, 60632,77, 44532,52, 0,00, 0,00, 0,00, 0,00, 0,00, 0,00, 0,00, 0,00, 0,00
59, 39976,07, 42948,56, 0,00, 0,00, 0,00, 0,00, 0,00, 0,00, 0,00, 0,00, 0,00
60, 27850,56, 42602,94, 0,00, 0,00, 0,00, 0,00, 0,00, 0,00, 0,00, 0,00, 0,00
61, 40652,01, 43870,68, 0,00, 0,00, 0,00, 0,00, 0,00, 0,00, 0,00, 0,00, 0,00
62, 60510,71, 45148,49, 0,00, 0,00, 0,00, 0,00, 0,00, 0,00, 0,01, 0,00, 0,00
63, 60775,80, 44537,21, 0,00, 0,00, 0,00, 0,00, 0,00, 0,00, 0,00, 0,00, 0,00
64, 40163,49, 42951,42, 0,00, 0,00, 0,00, 0,00, 0,00, 0,00, 0,00, 0,00, 0,00
65, 27823,09, 42598,94, 0,00, 0,00, 0,00, 0,00, 0,00, 0,00, 0,00, 0,00, 0,00
66, 40458,51, 43867,13, 0,00, 0,00, 0,00, 0,00, 0,00, 0,00, 0,00, 0,00, 0,00
67, 60306,59, 45131,79, 0,00, 0,00, 0,00, 0,00, 0,00, 0,00, 0,00, 0,00, 0,00
68, 60960,20, 44552,46, 0,00, 0,00, 0,00, 0,00, 0,00, 0,00, 0,00, 0,00, 0,00
69, 40401,16, 42967,96, 0,00, 0,00, 0,00, 0,00, 0,00, 0,00, 0,00, 0,00, 0,00
70, 27810,02, 42594,55, 0,00, 0,00, 0,00, 0,00, 0,00, 0,00, 0,00, 0,00, 0,00
71, 40240,54, 43856,65, 0,00, 0,00, 0,00, 0,00, 0,00, 0,00, 0,00, 0,00, 0,00
72, 60126,91, 45135,01, 0,00, 0,00, 0,00, 0,00, 0,00, 0,00, 0,01, 0,01, 0,01
73, 61136,94, 44582,61, 0,00, 0,00, 0,00, 0,00, 0,00, 0,00, 0,00, 0,00, 0,00
74, 40599,71, 42981,78, 0,00, 0,00, 0,00, 0,00, 0,00, 0,00, 0,00, 0,00, 0,00
75, 27800,09, 42579,13, 0,00, 0,00, 0,00, 0,00, 0,00, 0,00, 0,00, 0,00, 0,00
76, 40032,55, 43830,61, 0,00, 0,00, 0,00, 0,00, 0,00, 0,00, 0,00, 0,00, 0,00
77, 59922,12, 45118,61, 0,00, 0,00, 0,00, 0,00, 0,00, 0,00, 0,00, 0,00, 0,00
78, 61311,08, 44605,05, 0,00, 0,00, 0,00, 0,00, 0,00, 0,00, 0,00, 0,00, 0,00
79, 40818,35, 42996,95, 0,00, 0,00, 0,00, 0,00, 0,00, 0,00, 0,00, 0,00, 0,00
80, 27801,79, 42569,10, 0,00, 0,00, 0,00, 0,00, 0,00, 0,00, 0,00, 0,00, 0,00
81, 39839,48, 43815,72, 0,00, 0,00, 0,00, 0,00, 0,00, 0,00, 0,00, 0,00, 0,00
82, 59746,34, 45112,19, 0,00, 0,00, 0,00, 0,00, 0,00, 0,00, 0,01, 0,00, 0,01
83, 61479,95, 44612,88, 0,00, 0,00, 0,00, 0,00, 0,00, 0,00, 0,00, 0,00, 0,00
84, 41022,98, 43001,07, 0,00, 0,00, 0,00, 0,00, 0,00, 0,00, 0,00, 0,00, 0,00
85, 27789,30, 42560,09, 0,00, 0,00, 0,00, 0,00, 0,00, 0,00, 0,00, 0,00, 0,00
86, 39633,75, 43798,42, 0,00, 0,00, 0,00, 0,00, 0,00, 0,00, 0,00, 0,00, 0,00
87, 59529,38, 45096,61, 0,00, 0,00, 0,00, 0,00, 0,00, 0,00, 0,00, 0,00, 0,00
88, 61626,53, 44625,01, 0,00, 0,00, 0,00, 0,00, 0,00, 0,00, 0,00, 0,00, 0,00
89, 41244,40, 43007,48, 0,00, 0,00, 0,00, 0,00, 0,00, 0,00, 0,00, 0,00, 0,00
90, 27790,95, 42552,96, 0,00, 0,00, 0,00, 0,00, 0,00, 0,00, 0,00, 0,00, 0,00
91, 39440,16, 43787,69, 0,00, 0,00, 0,00, 0,00, 0,00, 0,00, 0,00, 0,00, 0,00
92, 59320,28, 45081,75, 0,00, 0,00, 0,00, 0,00, 0,00, 0,00, 0,01, 0,00, 0,00
93, 61776,11, 44641,44, 0,00, 0,00, 0,00, 0,00, 0,00, 0,00, 0,00, 0,00, 0,00
94, 41465,01, 43023,46, 0,00, 0,00, 0,00, 0,00, 0,00, 0,00, 0,00, 0,00, 0,00
95, 27816,05, 42545,11, 0,00, 0,00, 0,00, 0,00, 0,00, 0,00, 0,00, 0,00, 0,00
96, 39248,23, 43769,54, 0,00, 0,00, 0,00, 0,00, 0,00, 0,00, 0,00, 0,00, 0,00
97, 59118,33, 45062,64, 0,00, 0,00, 0,00, 0,00, 0,00, 0,00, 0,00, 0,00, 0,00
98, 61925,82, 44650,27, 0,00, 0,00, 0,00, 0,00, 0,00, 0,00, 0,00, 0,00, 0,00
99, 41687,14, 43041,12, 0,00, 0,00, 0,00, 0,00, 0,00, 0,00, 0,00, 0,00, 0,00
100, 27842,07, 42539,77, 0,00, 0,00, 0,00, 0,00, 0,00, 0,00, 0,00, 0,00, 0,00
101, 39069,29, 43761,90, 0,00, 0,00, 0,00, 0,00, 0,00, 0,00, 0,00, 0,00, 0,00
102, 58913,86, 45064,42, 0,00, 0,00, 0,00, 0,00, 0,00, 0,00, 0,01, 0,01, 0,00
103, 62086,41, 44682,77, 0,00, 0,00, 0,00, 0,00, 0,00, 0,00, 0,00, 0,00, 0,00
104, 41929,70, 43058,93, 0,00, 0,00, 0,00, 0,00, 0,00, 0,00, 0,00, 0,00, 0,00
105, 27882,86, 42540,38, 0,00, 0,00, 0,00, 0,00, 0,00, 0,00, 0,00, 0,00, 0,00
106, 38876,54, 43743,73, 0,00, 0,00, 0,00, 0,00, 0,00, 0,00, 0,00, 0,00, 0,00
107, 58706,77, 45053,29, 0,00, 0,00, 0,00, 0,00, 0,00, 0,00, 0,00, 0,00, 0,00
108, 62215,63, 44702,10, 0,00, 0,00, 0,00, 0,00, 0,00, 0,00, 0,00, 0,00, 0,00
109, 42156,28, 43082,83, 0,00, 0,00, 0,00, 0,00, 0,00, 0,00, 0,00, 0,00, 0,00
110, 27956,20, 42553,27, 0,00, 0,00, 0,00, 0,00, 0,00, 0,00, 0,00, 0,00, 0,00
111, 38696,57, 43736,26, 0,00, 0,00, 0,00, 0,00, 0,00, 0,00, 0,00, 0,00, 0,00
112, 58467,45, 45036,35, 0,00, 0,00, 0,00, 0,00, 0,00, 0,00, 0,01, 0,01, -0,00
113, 62349,27, 44716,79, 0,00, 0,00, 0,00, 0,00, 0,00, 0,00, 0,00, 0,00, 0,00
114, 42393,79, 43090,43, 0,00, 0,00, 0,00, 0,00, 0,00, 0,00, 0,00, 0,00, 0,00
115, 27986,86, 42533,18, 0,00, 0,00, 0,00, 0,00, 0,00, 0,00, 0,00, 0,00, 0,00
116, 38498,96, 43716,39, 0,00, 0,00, 0,00, 0,00, 0,00, 0,00, 0,00, 0,00, 0,00
117, 58257,29, 45019,83, 0,00, 0,00, 0,00, 0,00, 0,00, 0,00, 0,00, 0,00, 0,00
118, 62467,27, 44721,21, 0,00, 0,00, 0,00, 0,00, 0,00, 0,00, 0,00, 0,00, 0,00
119, 42632,98, 43102,30, 0,00, 0,00, 0,00, 0,00, 0,00, 0,00, 0,00, 0,00, 0,00
120, 28058,39, 42534,12, 0,00, 0,00, 0,00, 0,00, 0,00, 0,00, 0,00, 0,00, 0,00
121, 38295,00, 43694,73, 0,00, 0,00, 0,00, 0,00, 0,00, 0,00, 0,00, 0,00, 0,00
122, 58005,93, 45007,27, 0,00, 0,00, 0,00, 0,00, 0,00, 0,00, 0,01, 0,00, 0,00
123, 62607,32, 44750,27, 0,00, 0,00, 0,00, 0,00, 0,00, 0,00, 0,00, 0,00, 0,00
124, 42875,99, 43122,57, 0,00, 0,00, 0,00, 0,00, 0,00, 0,00, 0,00, 0,00, 0,00
125, 28093,08, 42529,80, 0,00, 0,00, 0,00, 0,00, 0,00, 0,00, 0,00, 0,00, 0,00
126, 38121,59, 43691,47, 0,00, 0,00, 0,00, 0,00, 0,00, 0,00, 0,00, 0,00, 0,00
127, 57783,44, 45000,72, 0,00, 0,00, 0,00, 0,00, 0,00, 0,00, 0,00, 0,00, 0,00
128, 62720,07, 44770,27, 0,00, 0,00, 0,00, 0,00, 0,00, 0,00, 0,00, 0,00, 0,00
129, 43115,75, 43143,74, 0,00, 0,00, 0,00, 0,00, 0,00, 0,00, 0,00, 0,00, 0,00
130, 28158,91, 42529,27, 0,00, 0,00, 0,00, 0,00, 0,00, 0,00, 0,00, 0,00, 0,00
131, 37936,81, 43667,39, 0,00, 0,00, 0,00, 0,00, 0,00, 0,00, 0,00, 0,00, 0,00
132, 57557,13, 44974,48, 0,00, 0,00, 0,00, 0,00, 0,00, 0,00, 0,00, 0,00, 0,00
133, 62832,85, 44765,60, 0,00, 0,00, 0,00, 0,00, 0,00, 0,00, 0,00, 0,00, 0,00
134, 43345,17, 43136,68, 0,00, 0,00, 0,00, 0,00, 0,00, 0,00, 0,00, 0,00, 0,00
135, 28239,93, 42507,65, 0,00, 0,00, 0,00, 0,00, 0,00, 0,00, 0,00, 0,00, 0,00
136, 37740,76, 43633,06, 0,00, 0,00, 0,00, 0,00, 0,00, 0,00, 0,00, 0,00, 0,00
137, 57312,55, 44947,39, 0,00, 0,00, 0,00, 0,00, 0,00, 0,00, 0,00, 0,00, 0,00
138, 62941,82, 44775,86, 0,00, 0,00, 0,00, 0,00, 0,00, 0,00, 0,00, 0,00, 0,00
139, 43599,45, 43154,78, 0,00, 0,00, 0,00, 0,00, 0,00, 0,00, 0,00, 0,00, 0,00
140, 28306,38, 42507,96, 0,00, 0,00, 0,00, 0,00, 0,00, 0,00, 0,00, 0,00, 0,00
141, 37545,14, 43624,08, 0,00, 0,00, 0,00, 0,00, 0,00, 0,00, 0,00, 0,00, 0,00
142, 57094,73, 44957,14, 0,00, 0,00, 0,00, 0,00, 0,00, 0,00, 0,01, 0,00, 0,01
143, 63063,46, 44816,97, 0,00, 0,00, 0,00, 0,00, 0,00, 0,00, 0,00, 0,00, 0,00
144, 43854,97, 43184,93, 0,00, 0,00, 0,00, 0,00, 0,00, 0,00, 0,00, 0,00, 0,00
145, 28381,57, 42512,30, 0,00, 0,00, 0,00, 0,00, 0,00, 0,00, 0,00, 0,00, 0,00
146, 37350,41, 43611,11, 0,00, 0,00, 0,00, 0,00, 0,00, 0,00, 0,00, 0,00, 0,00
147, 56857,74, 44937,80, 0,00, 0,00, 0,00, 0,00, 0,00, 0,00, 0,00, 0,00, 0,00
148, 63172,42, 44827,29, 0,00, 0,00, 0,00, 0,00, 0,00, 0,00, 0,00, 0,00, 0,00
149, 44089,21, 43201,23, 0,00, 0,00, 0,00, 0,00, 0,00, 0,00, 0,00, 0,00, 0,00
150, 28455,49, 42516,10, 0,00, 0,00, 0,00, 0,00, 0,00, 0,00, 0,00, 0,00, 0,00
151, 37179,98, 43610,55, 0,00, 0,00, 0,00, 0,00, 0,00, 0,00, 0,00, 0,00, 0,00
152, 56635,77, 44924,05, 0,00, 0,00, 0,00, 0,00, 0,00, 0,00, 0,01, 0,00, 0,01
153, 63261,56, 44836,23, 0,00, 0,00, 0,00, 0,00, 0,00, 0,00, 0,00, 0,00, 0,00
154, 44316,15, 43202,66, 0,00, 0,00, 0,00, 0,00, 0,00, 0,00, 0,00, 0,00, 0,00
155, 28509,92, 42499,14, 0,00, 0,00, 0,00, 0,00, 0,00, 0,00, 0,00, 0,00, 0,00
156, 36967,57, 43573,45, 0,00, 0,00, 0,00, 0,00, 0,00, 0,00, 0,00, 0,00, 0,00
157, 56364,75, 44889,21, 0,00, 0,00, 0,00, 0,00, 0,00, 0,00, 0,00, 0,00, 0,00
158, 63342,52, 44829,64, 0,00, 0,00, 0,00, 0,00, 0,00, 0,00, 0,00, 0,00, 0,00
159, 44513,21, 43199,86, 0,00, 0,00, 0,00, 0,00, 0,00, 0,00, 0,00, 0,00, 0,00
160, 28568,57, 42483,40, 0,00, 0,00, 0,00, 0,00, 0,00, 0,00, 0,00, 0,00, 0,00
161, 36766,79, 43551,68, 0,00, 0,00, 0,00, 0,00, 0,00, 0,00, 0,01, 0,00, 0,00
162, 56162,82, 44894,13, 0,00, 0,00, 0,00, 0,00, 0,00, 0,00, 0,00, 0,00, 0,00
163, 63473,36, 44865,45, 0,00, 0,00, 0,00, 0,00, 0,00, 0,00, 0,00, 0,00, 0,00
164, 44736,07, 43221,14, 0,00, 0,00, 0,00, 0,00, 0,00, 0,00, 0,00, 0,00, 0,00
165, 28619,42, 42488,12, 0,00, 0,00, 0,00, 0,00, 0,00, 0,00, 0,00, 0,00, 0,00
166, 36578,67, 43555,77, 0,00, 0,00, 0,00, 0,00, 0,00, 0,00, 0,00, 0,00, 0,00
167, 55948,07, 44888,27, 0,00, 0,00, 0,00, 0,00, 0,00, 0,00, 0,00, 0,00, 0,00
168, 63590,46, 44891,96, 0,00, 0,00, 0,00, 0,00, 0,00, 0,00, 0,00, 0,00, 0,00
169, 44940,10, 43243,09, 0,00, 0,00, 0,00, 0,00, 0,00, 0,00, 0,00, 0,00, 0,00
170, 28685,33, 42494,35, 0,00, 0,00, 0,00, 0,00, 0,00, 0,00, 0,00, 0,00, 0,00
171, 36396,08, 43537,64, 0,00, 0,00, 0,00, 0,00, 0,00, 0,00, 0,00, 0,00, 0,00
172, 55765,54, 44884,22, 0,00, 0,00, 0,00, 0,00, 0,00, 0,00, 0,00, 0,00, 0,00
173, 63736,22, 44905,64, 0,00, 0,00, 0,00, 0,00, 0,00, 0,00, 0,00, 0,00, 0,00
174, 45131,12, 43233,66, 0,00, 0,00, 0,00, 0,00, 0,00, 0,00, 0,00, 0,00, 0,00
175, 28707,87, 42462,01, 0,00, 0,00, 0,00, 0,00, 0,00, 0,00, 0,00, 0,00, 0,00
176, 36187,47, 43498,64, 0,00, 0,00, 0,00, 0,00, 0,00, 0,00, 0,00, 0,00, 0,00
177, 55558,46, 44852,17, 0,00, 0,00, 0,00, 0,00, 0,00, 0,00, 0,00, 0,00, 0,00
178, 63860,68, 44910,31, 0,00, 0,00, 0,00, 0,00, 0,00, 0,00, 0,00, 0,00, 0,00
179, 45307,07, 43234,26, 0,00, 0,00, 0,00, 0,00, 0,00, 0,00, 0,00, 0,00, 0,00
180, 28724,74, 42445,43, 0,00, 0,00, 0,00, 0,00, 0,00, 0,00, 0,00, 0,00, 0,00
181, 35983,29, 43486,08, 0,00, 0,00, 0,00, 0,00, 0,00, 0,00, 0,01, 0,00, 0,00
182, 55361,27, 44854,70, 0,00, 0,00, 0,00, 0,00, 0,00, 0,00, 0,00, 0,00, 0,00
183, 64007,14, 44940,77, 0,00, 0,00, 0,00, 0,00, 0,00, 0,00, 0,00, 0,00, 0,00
184, 45486,78, 43255,45, 0,00, 0,00, 0,00, 0,00, 0,00, 0,00, 0,00, 0,00, 0,00
185, 28764,26, 42457,74, 0,00, 0,00, 0,00, 0,00, 0,00, 0,00, 0,00, 0,00, 0,00
186, 35797,73, 43476,02, 0,00, 0,00, 0,00, 0,00, 0,00, 0,00, 0,00, 0,00, 0,00
187, 55189,94, 44847,84, 0,00, 0,00, 0,00, 0,00, 0,00, 0,00, 0,00, 0,00, 0,00
188, 64174,18, 44964,89, 0,00, 0,00, 0,00, 0,00, 0,00, 0,00, 0,00, 0,00, 0,00
189, 45669,04, 43251,43, 0,00, 0,00, 0,00, 0,00, 0,00, 0,00, 0,00, 0,00, 0,00
190, 28776,22, 42429,55, 0,00, 0,00, 0,00, 0,00, 0,00, 0,00, 0,00, 0,00, 0,00
191, 35587,55, 43449,96, 0,00, 0,00, 0,00, 0,00, 0,00, 0,00, 0,01, 0,00, -0,00
192, 55009,95, 44838,96, 0,00, 0,00, 0,00, 0,00, 0,00, 0,00, 0,00, 0,00, 0,00
193, 64328,25, 44982,39, 0,00, 0,00, 0,00, 0,00, 0,00, 0,00, 0,00, 0,00, 0,00
194, 45827,64, 43245,17, 0,00, 0,00, 0,00, 0,00, 0,00, 0,00, 0,00, 0,00, 0,00
195, 28797,52, 42420,48, 0,00, 0,00, 0,00, 0,00, 0,00, 0,00, 0,00, 0,00, 0,00
196, 35404,74, 43442,92, 0,00, 0,00, 0,00, 0,00, 0,00, 0,00, 0,00, 0,00, 0,00
197, 54846,26, 44841,62, 0,00, 0,00, 0,00, 0,00, 0,00, 0,00, 0,00, 0,00, 0,00
198, 64502,98, 45020,23, 0,00, 0,00, 0,00, 0,00, 0,00, 0,00, 0,00, 0,00, 0,00
199, 46023,54, 43267,70, 0,00, 0,00, 0,00, 0,00, 0,00, 0,00, 0,00, 0,00, 0,00
200, 28821,77, 42420,48, 0,00, 0,00, 0,00, 0,00, 0,00, 0,00, 0,00, 0,00, 0,00
201, 35210,77, 43432,95, 0,00, 0,00, 0,00, 0,00, 0,00, 0,00, 0,01, -0,00, 0,00
202, 54686,20, 44845,38, 0,00, 0,00, 0,00, 0,00, 0,00, 0,00, 0,00, 0,00, 0,00
203, 64663,97, 45044,53, 0,00, 0,00, 0,00, 0,00, 0,00, 0,00, 0,00, 0,00, 0,00
204, 46203,04, 43269,40, 0,00, 0,00, 0,00, 0,00, 0,00, 0,00, 0,00, 0,00, 0,00
205, 28842,87, 42404,14, 0,00, 0,00, 0,00, 0,00, 0,00, 0,00, 0,00, 0,00, 0,00
206, 35029,96, 43418,33, 0,00, 0,00, 0,00, 0,00, 0,00, 0,00, 0,00, 0,00, 0,00
207, 54507,90, 44843,39, 0,00, 0,00, 0,00, 0,00, 0,00, 0,00, 0,00, 0,00, 0,00
208, 64827,03, 45074,08, 0,00, 0,00, 0,00, 0,00, 0,00, 0,00, 0,00, 0,00, 0,00
209, 46387,04, 43272,44, 0,00, 0,00, 0,00, 0,00, 0,00, 0,00, 0,00, 0,00, 0,00
210, 28846,94, 42384,67, 0,00, 0,00, 0,00, 0,00, 0,00, 0,00, 0,00, 0,00, 0,00
211, 34815,77, 43385,76, 0,00, 0,00, 0,00, 0,00, 0,00, 0,00, 0,01, 0,00, 0,01
212, 54313,35, 44815,61, 0,00, 0,00, 0,00, 0,00, 0,00, 0,00, 0,00, 0,00, 0,00
213, 64965,43, 45086,55, 0,00, 0,00, 0,00, 0,00, 0,00, 0,00, 0,00, 0,00, 0,00
214, 46571,31, 43270,70, 0,00, 0,00, 0,00, 0,00, 0,00, 0,00, 0,00, 0,00, 0,00
215, 28858,09, 42361,88, 0,00, 0,00, 0,00, 0,00, 0,00, 0,00, 0,00, 0,00, 0,00
216, 34622,09, 43371,95, 0,00, 0,00, 0,00, 0,00, 0,00, 0,00, 0,00, 0,00, 0,00
217, 54140,48, 44822,78, 0,00, 0,00, 0,00, 0,00, 0,00, 0,00, 0,00, 0,00, 0,00
218, 65135,46, 45119,03, 0,00, 0,00, 0,00, 0,00, 0,00, 0,00, 0,00, 0,00, 0,00
219, 46753,70, 43272,42, 0,00, 0,00, 0,00, 0,00, 0,00, 0,00, 0,00, 0,00, 0,00
220, 28887,37, 42356,64, 0,00, 0,00, 0,00, 0,00, 0,00, 0,00, 0,00, 0,00, 0,00
221, 34429,13, 43363,41, 0,00, 0,00, 0,00, 0,00, 0,00, 0,00, 0,01, 0,00, 0,01
222, 53964,29, 44825,15, 0,00, 0,00, 0,00, 0,00, 0,00, 0,00, 0,00, 0,00, 0,00
223, 65296,68, 45158,73, 0,00, 0,00, 0,00, 0,00, 0,00, 0,00, 0,00, 0,00, 0,00
224, 46958,98, 43293,00, 0,00, 0,00, 0,00, 0,00, 0,00, 0,00, 0,00, 0,00, 0,00
225, 28921,55, 42357,83, 0,00, 0,00, 0,00, 0,00, 0,00, 0,00, 0,00, 0,00, 0,00
226, 34237,37, 43353,60, 0,00, 0,00, 0,00, 0,00, 0,00, 0,00, 0,00, 0,00, 0,00
227, 53785,58, 44823,67, 0,00, 0,00, 0,00, 0,00, 0,00, 0,00, 0,00, 0,00, 0,00
228, 65441,88, 45183,63, 0,00, 0,00, 0,00, 0,00, 0,00, 0,00, 0,00, 0,00, 0,00
229, 47138,15, 43281,31, 0,00, 0,00, 0,00, 0,00, 0,00, 0,00, 0,00, 0,00, 0,00
230, 28929,06, 42321,86, 0,00, 0,00, 0,00, 0,00, 0,00, 0,00, 0,00, 0,00, 0,00
231, 33993,74, 43322,57, 0,00, 0,00, 0,00, 0,00, 0,00, 0,00, 0,01, 0,00, 0,01
232, 53587,72, 44822,80, 0,00, 0,00, 0,00, 0,00, 0,00, 0,00, 0,00, 0,00, 0,00
233, 65600,34, 45217,78, 0,00, 0,00, 0,00, 0,00, 0,00, 0,00, 0,00, 0,00, 0,00
234, 47363,97, 43301,88, 0,00, 0,00, 0,00, 0,00, 0,00, 0,00, 0,00, 0,00, 0,00
235, 28988,15, 42316,07, 0,00, 0,00, 0,00, 0,00, 0,00, 0,00, 0,00, 0,00, 0,00
236, 33843,16, 43306,48, 0,00, 0,00, 0,00, 0,00, 0,00, 0,00, 0,00, 0,00, 0,00
237, 53396,89, 44806,51, 0,00, 0,00, 0,00, 0,00, 0,00, 0,00, 0,00, 0,00, 0,00
238, 65710,20, 45243,50, 0,00, 0,00, 0,00, 0,00, 0,00, 0,00, 0,00, 0,00, 0,00
239, 47605,64, 43322,35, 0,00, 0,00, 0,00, 0,00, 0,00, 0,00, 0,00, 0,00, 0,00
240, 29046,63, 42309,23, 0,00, 0,00, 0,00, 0,00, 0,00, 0,00, 0,00, 0,00, 0,00
241, 33646,32, 43290,48, 0,00, 0,00, 0,00, 0,00, 0,00, 0,00, 0,01, 0,00, 0,01
242, 53193,37, 44808,83, 0,00, 0,00, 0,00, 0,00, 0,00, 0,00, 0,00, 0,00, 0,00
243, 65812,02, 45272,74, 0,00, 0,00, 0,00, 0,00, 0,00, 0,00, 0,00, 0,00, 0,00
